SpectraSuite Data File
++++++++++++++++++++++++++++++++++++
Date: Wed May 16 14:02:47 EEST 2012
User: OO Maya
Dark Spectrum Present: No
Reference Spectrum Present: No
Number of Sampled Component Spectra: 1
Spectrometers: MAYP11278
Integration Time (usec): 20000000 (MAYP11278)
Spectra Averaged: 1 (MAYP11278)
Boxcar Smoothing: 0 (MAYP11278)
Correct for Electrical Dark: No (MAYP11278)
Strobe/Lamp Enabled: No (MAYP11278)
Correct for Detector Non-linearity: No (MAYP11278)
Correct for Stray Light: No (MAYP11278)
Number of Pixels in Processed Spectrum: 2068
>>>>>Begin Processed Spectral Data<<<<<
188,05	2290,00
188,53	2208,00
189,01	2185,00
189,49	2179,00
189,96	24661,00
190,44	26507,00
190,92	25450,00
191,40	26195,00
191,88	27548,00
192,36	26009,00
192,83	25267,00
193,31	24644,00
193,79	25942,00
194,27	25589,00
194,75	27024,00
195,23	25721,00
195,70	27478,00
196,18	25648,00
196,66	26185,00
197,14	30516,00
197,62	26312,00
198,09	24977,00
198,57	25507,00
199,05	25039,00
199,53	26884,00
200,01	27634,00
200,48	25917,00
200,96	25944,00
201,44	27271,00
201,92	27611,00
202,39	27504,00
202,87	25065,00
203,35	26999,00
203,83	25302,00
204,31	27771,00
204,78	28719,00
205,26	25494,00
205,74	25842,00
206,22	28898,00
206,69	26058,00
207,17	26905,00
207,65	31031,00
208,13	26796,00
208,60	27705,00
209,08	26332,00
209,56	27964,00
210,04	27427,00
210,51	26601,00
210,99	26542,00
211,47	27282,00
211,94	26900,00
212,42	25542,00
212,90	29620,00
213,38	27665,00
213,85	25995,00
214,33	29129,00
214,81	27591,00
215,29	29388,00
215,76	27339,00
216,24	28004,00
216,72	28114,00
217,19	27870,00
217,67	26258,00
218,15	26470,00
218,62	28851,00
219,10	25044,00
219,58	25888,00
220,05	26342,00
220,53	26971,00
221,01	28864,00
221,49	26314,00
221,96	28393,00
222,44	26093,00
222,92	28432,00
223,39	26301,00
223,87	28461,00
224,35	26928,00
224,82	26708,00
225,30	25631,00
225,78	26804,00
226,25	26197,00
226,73	27140,00
227,21	28276,00
227,68	26826,00
228,16	27550,00
228,63	27926,00
229,11	27838,00
229,59	26701,00
230,06	26559,00
230,54	26465,00
231,02	28167,00
231,49	27990,00
231,97	27173,00
232,45	27520,00
232,92	25648,00
233,40	27443,00
233,87	27076,00
234,35	32538,00
234,83	27596,00
235,30	26354,00
235,78	26024,00
236,25	25169,00
236,73	28540,00
237,21	30488,00
237,68	26445,00
238,16	27497,00
238,63	27474,00
239,11	27322,00
239,59	26960,00
240,06	25289,00
240,54	27769,00
241,01	29122,00
241,49	27352,00
241,96	26913,00
242,44	28343,00
242,92	29011,00
243,39	25636,00
243,87	25968,00
244,34	28548,00
244,82	29453,00
245,29	26932,00
245,77	29385,00
246,24	28898,00
246,72	26092,00
247,20	27287,00
247,67	27311,00
248,15	27595,00
248,62	28461,00
249,10	24914,00
249,57	27606,00
250,05	28064,00
250,52	27503,00
251,00	29472,00
251,47	27446,00
251,95	30463,00
252,42	29456,00
252,90	26526,00
253,37	29158,00
253,85	27648,00
254,32	26864,00
254,80	27650,00
255,27	27783,00
255,75	28357,00
256,22	26317,00
256,70	27715,00
257,17	28304,00
257,65	29031,00
258,12	32496,00
258,60	27731,00
259,07	26483,00
259,55	27658,00
260,02	28344,00
260,50	30164,00
260,97	27139,00
261,45	26469,00
261,92	28985,00
262,40	26268,00
262,87	27602,00
263,35	27074,00
263,82	25679,00
264,30	28615,00
264,77	29181,00
265,25	26568,00
265,72	27728,00
266,19	27856,00
266,67	28504,00
267,14	26928,00
267,62	27213,00
268,09	27636,00
268,57	28060,00
269,04	25055,00
269,51	26230,00
269,99	26433,00
270,46	28322,00
270,94	28950,00
271,41	26916,00
271,89	27258,00
272,36	25372,00
272,83	25524,00
273,31	24680,00
273,78	27515,00
274,26	33171,00
274,73	28521,00
275,20	28641,00
275,68	26452,00
276,15	27315,00
276,63	27886,00
277,10	28501,00
277,57	25931,00
278,05	27058,00
278,52	25790,00
279,00	33707,00
279,47	26630,00
279,94	26522,00
280,42	33488,00
280,89	29199,00
281,36	33006,00
281,84	26680,00
282,31	29097,00
282,78	27112,00
283,26	27271,00
283,73	28312,00
284,21	26191,00
284,68	26004,00
285,15	28716,00
285,63	27262,00
286,10	27964,00
286,57	27688,00
287,05	25288,00
287,52	27981,00
287,99	30167,00
288,47	27276,00
288,94	28636,00
289,41	24893,00
289,89	29632,00
290,36	26246,00
290,83	27969,00
291,30	26617,00
291,78	27980,00
292,25	30973,00
292,72	26446,00
293,20	29197,00
293,67	26799,00
294,14	28336,00
294,62	28207,00
295,09	26355,00
295,56	27290,00
296,03	27516,00
296,51	30480,00
296,98	30270,00
297,45	28659,00
297,93	28212,00
298,40	28248,00
298,87	26816,00
299,34	30063,00
299,82	27183,00
300,29	28224,00
300,76	26849,00
301,23	28882,00
301,71	28926,00
302,18	28882,00
302,65	26337,00
303,12	28674,00
303,60	29124,00
304,07	26332,00
304,54	26732,00
305,01	26469,00
305,49	27871,00
305,96	28235,00
306,43	28040,00
306,90	28636,00
307,38	26898,00
307,85	27128,00
308,32	28136,00
308,79	26766,00
309,27	29000,00
309,74	29217,00
310,21	28016,00
310,68	27677,00
311,15	28484,00
311,63	26480,00
312,10	29117,00
312,57	27456,00
313,04	30510,00
313,51	26851,00
313,99	27168,00
314,46	28005,00
314,93	26837,00
315,40	26632,00
315,87	29106,00
316,34	28740,00
316,82	28354,00
317,29	28797,00
317,76	28201,00
318,23	32614,00
318,70	27662,00
319,17	27618,00
319,65	25701,00
320,12	28143,00
320,59	30684,00
321,06	29046,00
321,53	26826,00
322,00	25431,00
322,48	25945,00
322,95	30417,00
323,42	27386,00
323,89	31588,00
324,36	26004,00
324,83	28060,00
325,30	27440,00
325,78	26897,00
326,25	27026,00
326,72	27084,00
327,19	28301,00
327,66	28490,00
328,13	28474,00
328,60	27908,00
329,07	27413,00
329,54	27181,00
330,02	27008,00
330,49	26650,00
330,96	28872,00
331,43	28354,00
331,90	30224,00
332,37	26595,00
332,84	30945,00
333,31	28832,00
333,78	28428,00
334,25	29821,00
334,72	27982,00
335,20	28365,00
335,67	33672,00
336,14	26332,00
336,61	27429,00
337,08	27410,00
337,55	28154,00
338,02	27088,00
338,49	27242,00
338,96	30154,00
339,43	29261,00
339,90	26107,00
340,37	26349,00
340,84	26289,00
341,31	28392,00
341,78	29209,00
342,25	27069,00
342,72	28278,00
343,19	28998,00
343,67	28087,00
344,14	27218,00
344,61	27605,00
345,08	26723,00
345,55	27967,00
346,02	28416,00
346,49	26858,00
346,96	26449,00
347,43	30426,00
347,90	26985,00
348,37	29595,00
348,84	28075,00
349,31	25903,00
349,78	27677,00
350,25	28905,00
350,72	28004,00
351,19	26296,00
351,66	28458,00
352,13	30938,00
352,60	28554,00
353,07	27617,00
353,54	28178,00
354,01	28513,00
354,48	28557,00
354,94	29226,00
355,41	28176,00
355,88	30646,00
356,35	27100,00
356,82	30663,00
357,29	27229,00
357,76	32058,00
358,23	29539,00
358,70	26559,00
359,17	27352,00
359,64	27812,00
360,11	27987,00
360,58	30369,00
361,05	31417,00
361,52	29062,00
361,99	29567,00
362,46	29967,00
362,93	30059,00
363,39	30336,00
363,86	35067,00
364,33	32459,00
364,80	30992,00
365,27	33737,00
365,74	33028,00
366,21	32924,00
366,68	35940,00
367,15	37034,00
367,62	39114,00
368,09	38697,00
368,55	41328,00
369,02	46482,00
369,49	46289,00
369,96	51364,00
370,43	52262,00
370,90	53481,00
371,37	55345,00
371,84	58268,00
372,31	56995,00
372,77	55632,00
373,24	56677,00
373,71	57833,00
374,18	55408,00
374,65	54713,00
375,12	54349,00
375,59	49476,00
376,05	51961,00
376,52	48377,00
376,99	46322,00
377,46	45184,00
377,93	45654,00
378,40	43961,00
378,86	42292,00
379,33	41407,00
379,80	40790,00
380,27	41526,00
380,74	42024,00
381,21	39396,00
381,67	40627,00
382,14	39795,00
382,61	34917,00
383,08	36701,00
383,55	34921,00
384,02	36553,00
384,48	34629,00
384,95	43269,00
385,42	33878,00
385,89	32448,00
386,36	32373,00
386,82	35075,00
387,29	30858,00
387,76	30136,00
388,23	33159,00
388,69	31825,00
389,16	33000,00
389,63	29791,00
390,10	31546,00
390,57	30669,00
391,03	30947,00
391,50	30734,00
391,97	30089,00
392,44	30314,00
392,90	29305,00
393,37	28926,00
393,84	34028,00
394,31	29604,00
394,77	31014,00
395,24	28155,00
395,71	30240,00
396,18	36981,00
396,64	27361,00
397,11	29712,00
397,58	30379,00
398,05	27489,00
398,51	28597,00
398,98	27730,00
399,45	26954,00
399,92	30070,00
400,38	26915,00
400,85	28074,00
401,32	27776,00
401,78	28922,00
402,25	28631,00
402,72	28448,00
403,18	26828,00
403,65	30700,00
404,12	27653,00
404,59	30110,00
405,05	31348,00
405,52	29887,00
405,99	26728,00
406,45	29571,00
406,92	28733,00
407,39	31142,00
407,85	27757,00
408,32	28500,00
408,79	28958,00
409,25	26314,00
409,72	29661,00
410,19	26514,00
410,65	29699,00
411,12	26961,00
411,59	29718,00
412,05	26355,00
412,52	25470,00
412,99	28775,00
413,45	27335,00
413,92	28518,00
414,39	28837,00
414,85	30772,00
415,32	27677,00
415,78	30730,00
416,25	28122,00
416,72	27989,00
417,18	31029,00
417,65	28546,00
418,12	27788,00
418,58	28109,00
419,05	27957,00
419,51	29043,00
419,98	26778,00
420,45	29197,00
420,91	26119,00
421,38	27439,00
421,84	26942,00
422,31	28532,00
422,78	27204,00
423,24	27607,00
423,71	28522,00
424,17	29198,00
424,64	27447,00
425,11	29012,00
425,57	27814,00
426,04	29835,00
426,50	27400,00
426,97	29893,00
427,43	29006,00
427,90	29312,00
428,37	26275,00
428,83	29584,00
429,30	28561,00
429,76	27708,00
430,23	28364,00
430,69	33416,00
431,16	26125,00
431,62	27447,00
432,09	30253,00
432,55	29210,00
433,02	27655,00
433,48	26987,00
433,95	27558,00
434,42	27531,00
434,88	28874,00
435,35	26366,00
435,81	29154,00
436,28	27750,00
436,74	25982,00
437,21	28919,00
437,67	28264,00
438,14	28125,00
438,60	27019,00
439,07	27372,00
439,53	34614,00
440,00	28353,00
440,46	29166,00
440,93	29839,00
441,39	26397,00
441,86	27062,00
442,32	31815,00
442,79	26630,00
443,25	28066,00
443,72	28188,00
444,18	26099,00
444,64	30085,00
445,11	28541,00
445,57	28076,00
446,04	27654,00
446,50	28499,00
446,97	27604,00
447,43	27842,00
447,90	26934,00
448,36	26727,00
448,83	28522,00
449,29	28446,00
449,75	27640,00
450,22	26449,00
450,68	26264,00
451,15	26472,00
451,61	28071,00
452,08	29032,00
452,54	26700,00
453,00	29420,00
453,47	27333,00
453,93	27406,00
454,40	27965,00
454,86	28705,00
455,32	27197,00
455,79	27743,00
456,25	29286,00
456,72	26880,00
457,18	29747,00
457,64	27259,00
458,11	27475,00
458,57	26177,00
459,04	28031,00
459,50	27425,00
459,96	27891,00
460,43	26800,00
460,89	26388,00
461,36	29968,00
461,82	29174,00
462,28	26553,00
462,75	25848,00
463,21	29409,00
463,67	27034,00
464,14	28024,00
464,60	27861,00
465,06	26191,00
465,53	26882,00
465,99	29180,00
466,45	27590,00
466,92	28449,00
467,38	28356,00
467,84	27371,00
468,31	27992,00
468,77	28346,00
469,23	27148,00
469,70	26510,00
470,16	27983,00
470,62	27973,00
471,09	26601,00
471,55	27237,00
472,01	26399,00
472,48	26673,00
472,94	27067,00
473,40	29697,00
473,87	27090,00
474,33	26312,00
474,79	27273,00
475,25	25836,00
475,72	27849,00
476,18	27350,00
476,64	27790,00
477,11	27156,00
477,57	27608,00
478,03	29872,00
478,49	27913,00
478,96	28933,00
479,42	26536,00
479,88	30005,00
480,35	28190,00
480,81	27457,00
481,27	26432,00
481,73	27261,00
482,20	27605,00
482,66	25866,00
483,12	26955,00
483,58	25191,00
484,05	26779,00
484,51	29649,00
484,97	27944,00
485,43	27270,00
485,89	24975,00
486,36	27027,00
486,82	25032,00
487,28	27890,00
487,74	25554,00
488,21	25042,00
488,67	25888,00
489,13	27494,00
489,59	27109,00
490,05	28769,00
490,52	25632,00
490,98	27432,00
491,44	25297,00
491,90	25920,00
492,36	24955,00
492,83	28712,00
493,29	27542,00
493,75	27453,00
494,21	25656,00
494,67	26492,00
495,14	26394,00
495,60	25796,00
496,06	28032,00
496,52	26369,00
496,98	26835,00
497,44	29766,00
497,91	28680,00
498,37	26248,00
498,83	27368,00
499,29	26432,00
499,75	31327,00
500,21	27202,00
500,67	26349,00
501,14	26656,00
501,60	26456,00
502,06	27883,00
502,52	26699,00
502,98	26878,00
503,44	27070,00
503,90	27860,00
504,37	26193,00
504,83	27674,00
505,29	27447,00
505,75	26006,00
506,21	26939,00
506,67	28365,00
507,13	26720,00
507,59	28145,00
508,05	27489,00
508,51	26264,00
508,98	26032,00
509,44	25073,00
509,90	26413,00
510,36	26852,00
510,82	25966,00
511,28	29216,00
511,74	28783,00
512,20	25826,00
512,66	24828,00
513,12	25667,00
513,58	27644,00
514,04	24368,00
514,51	28311,00
514,97	29862,00
515,43	24938,00
515,89	27247,00
516,35	28688,00
516,81	28503,00
517,27	31208,00
517,73	27779,00
518,19	27333,00
518,65	32964,00
519,11	26995,00
519,57	26109,00
520,03	25374,00
520,49	25826,00
520,95	27331,00
521,41	27916,00
521,87	28432,00
522,33	27020,00
522,79	25286,00
523,25	29716,00
523,71	28737,00
524,17	26716,00
524,63	29647,00
525,09	28010,00
525,55	27853,00
526,01	29265,00
526,47	27446,00
526,93	27200,00
527,39	25578,00
527,85	26722,00
528,31	28195,00
528,77	28092,00
529,23	26735,00
529,69	25525,00
530,15	28156,00
530,61	28140,00
531,07	25153,00
531,53	28752,00
531,99	27514,00
532,45	27025,00
532,91	27121,00
533,37	27672,00
533,83	26340,00
534,29	25420,00
534,75	27041,00
535,21	26292,00
535,67	27553,00
536,12	26051,00
536,58	27681,00
537,04	25652,00
537,50	28030,00
537,96	26901,00
538,42	27130,00
538,88	29928,00
539,34	28079,00
539,80	36223,00
540,26	25201,00
540,72	30060,00
541,18	27565,00
541,63	25320,00
542,09	27928,00
542,55	27921,00
543,01	26488,00
543,47	32043,00
543,93	25642,00
544,39	30116,00
544,85	28549,00
545,31	26893,00
545,76	26488,00
546,22	28713,00
546,68	27181,00
547,14	27732,00
547,60	28412,00
548,06	27420,00
548,52	26524,00
548,98	26664,00
549,43	25609,00
549,89	31062,00
550,35	26710,00
550,81	25278,00
551,27	27466,00
551,73	27372,00
552,19	29570,00
552,64	27530,00
553,10	25946,00
553,56	27616,00
554,02	26696,00
554,48	25534,00
554,93	27809,00
555,39	27337,00
555,85	30308,00
556,31	27364,00
556,77	29360,00
557,23	24823,00
557,68	27532,00
558,14	30754,00
558,60	26314,00
559,06	26968,00
559,52	25990,00
559,97	25804,00
560,43	25937,00
560,89	27059,00
561,35	26844,00
561,81	27204,00
562,26	26392,00
562,72	25944,00
563,18	27134,00
563,64	29142,00
564,09	25881,00
564,55	27312,00
565,01	26752,00
565,47	26458,00
565,92	27514,00
566,38	29100,00
566,84	26764,00
567,30	26101,00
567,75	27080,00
568,21	28722,00
568,67	26306,00
569,13	27040,00
569,58	28609,00
570,04	27274,00
570,50	27061,00
570,96	28343,00
571,41	27844,00
571,87	27013,00
572,33	27291,00
572,78	27482,00
573,24	26358,00
573,70	26192,00
574,16	26887,00
574,61	29374,00
575,07	28661,00
575,53	25575,00
575,98	27600,00
576,44	24319,00
576,90	29151,00
577,36	26595,00
577,81	26558,00
578,27	25231,00
578,73	29498,00
579,18	26617,00
579,64	26272,00
580,10	27153,00
580,55	27598,00
581,01	26997,00
581,47	27154,00
581,92	27431,00
582,38	26649,00
582,84	25496,00
583,29	27140,00
583,75	27737,00
584,21	26832,00
584,66	28187,00
585,12	26184,00
585,57	31632,00
586,03	26771,00
586,49	26790,00
586,94	26964,00
587,40	26965,00
587,86	28716,00
588,31	25477,00
588,77	28084,00
589,22	26873,00
589,68	25750,00
590,14	27856,00
590,59	28393,00
591,05	26326,00
591,51	24949,00
591,96	29480,00
592,42	26366,00
592,87	27514,00
593,33	27054,00
593,78	28426,00
594,24	27093,00
594,70	27001,00
595,15	29300,00
595,61	26633,00
596,06	25580,00
596,52	29693,00
596,98	28278,00
597,43	29145,00
597,89	27365,00
598,34	25007,00
598,80	27054,00
599,25	29249,00
599,71	26074,00
600,16	27820,00
600,62	29247,00
601,08	27844,00
601,53	28355,00
601,99	24790,00
602,44	32289,00
602,90	26539,00
603,35	27237,00
603,81	25136,00
604,26	24445,00
604,72	28070,00
605,17	26861,00
605,63	27972,00
606,08	27532,00
606,54	24870,00
606,99	27041,00
607,45	26716,00
607,90	27090,00
608,36	28206,00
608,81	26898,00
609,27	31533,00
609,72	28311,00
610,18	27266,00
610,63	26205,00
611,09	27616,00
611,54	25316,00
612,00	30138,00
612,45	28106,00
612,91	27574,00
613,36	32724,00
613,82	25512,00
614,27	25028,00
614,73	25231,00
615,18	25280,00
615,64	26873,00
616,09	26825,00
616,54	25651,00
617,00	26659,00
617,45	26964,00
617,91	28406,00
618,36	25866,00
618,82	26477,00
619,27	26539,00
619,72	28548,00
620,18	26442,00
620,63	28347,00
621,09	28779,00
621,54	27029,00
622,00	28593,00
622,45	29421,00
622,90	28811,00
623,36	26188,00
623,81	25872,00
624,27	28995,00
624,72	24744,00
625,17	26620,00
625,63	27260,00
626,08	26194,00
626,54	26874,00
626,99	27686,00
627,44	25690,00
627,90	28114,00
628,35	28259,00
628,81	24615,00
629,26	26740,00
629,71	27441,00
630,17	26098,00
630,62	27776,00
631,07	26904,00
631,53	28278,00
631,98	27502,00
632,43	28938,00
632,89	26182,00
633,34	26356,00
633,79	26006,00
634,25	26026,00
634,70	25442,00
635,15	26422,00
635,61	25674,00
636,06	24946,00
636,51	26481,00
636,97	26474,00
637,42	25877,00
637,87	28077,00
638,33	28412,00
638,78	26374,00
639,23	26955,00
639,69	25364,00
640,14	24616,00
640,59	27480,00
641,05	28703,00
641,50	24952,00
641,95	26456,00
642,40	26308,00
642,86	24615,00
643,31	26195,00
643,76	27944,00
644,22	25901,00
644,67	25404,00
645,12	26301,00
645,57	25648,00
646,03	27088,00
646,48	27139,00
646,93	27524,00
647,38	28046,00
647,84	27248,00
648,29	27631,00
648,74	25304,00
649,19	28925,00
649,65	27654,00
650,10	34361,00
650,55	25547,00
651,00	25698,00
651,46	25899,00
651,91	27134,00
652,36	25393,00
652,81	26695,00
653,27	26271,00
653,72	26021,00
654,17	26475,00
654,62	27297,00
655,07	26169,00
655,53	25172,00
655,98	27877,00
656,43	25590,00
656,88	26980,00
657,33	27630,00
657,79	27785,00
658,24	25424,00
658,69	27147,00
659,14	25494,00
659,59	34348,00
660,05	26077,00
660,50	28633,00
660,95	26542,00
661,40	25530,00
661,85	26397,00
662,30	25538,00
662,76	24692,00
663,21	27376,00
663,66	26006,00
664,11	26024,00
664,56	26503,00
665,01	24904,00
665,47	26919,00
665,92	25178,00
666,37	27010,00
666,82	26646,00
667,27	30963,00
667,72	28958,00
668,17	25621,00
668,62	27363,00
669,08	25312,00
669,53	30835,00
669,98	24474,00
670,43	25420,00
670,88	28738,00
671,33	26948,00
671,78	29539,00
672,23	31104,00
672,69	26829,00
673,14	26762,00
673,59	28868,00
674,04	32797,00
674,49	27184,00
674,94	27345,00
675,39	24587,00
675,84	25088,00
676,29	26671,00
676,74	26314,00
677,19	26157,00
677,64	26132,00
678,10	31647,00
678,55	26128,00
679,00	26091,00
679,45	26959,00
679,90	26183,00
680,35	26932,00
680,80	26646,00
681,25	24226,00
681,70	24066,00
682,15	26273,00
682,60	26632,00
683,05	27984,00
683,50	27543,00
683,95	27095,00
684,40	28940,00
684,85	27499,00
685,30	26749,00
685,75	27519,00
686,20	26425,00
686,65	25276,00
687,10	26939,00
687,55	25679,00
688,00	27035,00
688,45	26268,00
688,90	31777,00
689,35	27814,00
689,80	24795,00
690,25	26396,00
690,70	26358,00
691,15	24758,00
691,60	26673,00
692,05	24862,00
692,50	26851,00
692,95	26286,00
693,40	27808,00
693,85	27386,00
694,30	26842,00
694,75	26838,00
695,20	34537,00
695,65	26987,00
696,10	27074,00
696,55	30301,00
697,00	26549,00
697,45	25849,00
697,90	27348,00
698,35	25665,00
698,80	28038,00
699,24	28029,00
699,69	25857,00
700,14	26126,00
700,59	27778,00
701,04	28256,00
701,49	33590,00
701,94	25044,00
702,39	29313,00
702,84	26152,00
703,29	25932,00
703,74	27274,00
704,19	26453,00
704,63	26041,00
705,08	28989,00
705,53	28494,00
705,98	28223,00
706,43	25106,00
706,88	27922,00
707,33	26626,00
707,78	26519,00
708,22	27192,00
708,67	28519,00
709,12	26991,00
709,57	26090,00
710,02	26408,00
710,47	26846,00
710,92	25843,00
711,37	27932,00
711,81	26974,00
712,26	27051,00
712,71	25553,00
713,16	30384,00
713,61	26526,00
714,06	27027,00
714,50	29247,00
714,95	28264,00
715,40	26544,00
715,85	26762,00
716,30	26152,00
716,75	26043,00
717,19	25129,00
717,64	24858,00
718,09	27484,00
718,54	30086,00
718,99	25337,00
719,43	25061,00
719,88	26877,00
720,33	26503,00
720,78	26208,00
721,23	27276,00
721,67	25838,00
722,12	27423,00
722,57	26665,00
723,02	24967,00
723,47	24428,00
723,91	26861,00
724,36	24471,00
724,81	27321,00
725,26	24491,00
725,70	26350,00
726,15	26592,00
726,60	26838,00
727,05	29932,00
727,49	25387,00
727,94	29240,00
728,39	27314,00
728,84	26114,00
729,28	28963,00
729,73	25747,00
730,18	28243,00
730,63	25138,00
731,07	27090,00
731,52	27721,00
731,97	27185,00
732,41	27129,00
732,86	25354,00
733,31	27992,00
733,76	27108,00
734,20	25656,00
734,65	27638,00
735,10	27866,00
735,54	26848,00
735,99	31873,00
736,44	25766,00
736,89	26672,00
737,33	27719,00
737,78	28029,00
738,23	26935,00
738,67	26179,00
739,12	27017,00
739,57	24873,00
740,01	28630,00
740,46	27413,00
740,91	25431,00
741,35	27700,00
741,80	27818,00
742,25	26799,00
742,69	26927,00
743,14	25325,00
743,59	25487,00
744,03	26646,00
744,48	28455,00
744,92	28245,00
745,37	26670,00
745,82	28212,00
746,26	29711,00
746,71	23831,00
747,16	25406,00
747,60	24736,00
748,05	27460,00
748,49	26440,00
748,94	25977,00
749,39	27293,00
749,83	31629,00
750,28	26936,00
750,73	26461,00
751,17	24955,00
751,62	26103,00
752,06	26114,00
752,51	26418,00
752,95	30212,00
753,40	25911,00
753,85	26287,00
754,29	25069,00
754,74	25808,00
755,18	25561,00
755,63	26391,00
756,07	26886,00
756,52	28518,00
756,97	26264,00
757,41	29128,00
757,86	26887,00
758,30	26145,00
758,75	26323,00
759,19	26055,00
759,64	25116,00
760,08	26270,00
760,53	27396,00
760,98	26676,00
761,42	27650,00
761,87	28820,00
762,31	26351,00
762,76	24921,00
763,20	26239,00
763,65	28089,00
764,09	26564,00
764,54	24910,00
764,98	25861,00
765,43	27310,00
765,87	25614,00
766,32	24843,00
766,76	25657,00
767,21	26709,00
767,65	26716,00
768,10	27335,00
768,54	27965,00
768,99	26465,00
769,43	29816,00
769,88	25032,00
770,32	26140,00
770,77	25651,00
771,21	24796,00
771,65	27515,00
772,10	27080,00
772,54	27117,00
772,99	24602,00
773,43	26140,00
773,88	25875,00
774,32	24009,00
774,77	26350,00
775,21	25309,00
775,65	27072,00
776,10	26700,00
776,54	25149,00
776,99	25961,00
777,43	26024,00
777,88	27418,00
778,32	27714,00
778,76	25779,00
779,21	26822,00
779,65	31830,00
780,10	29456,00
780,54	26834,00
780,99	28318,00
781,43	27369,00
781,87	25370,00
782,32	27095,00
782,76	25118,00
783,20	26044,00
783,65	27835,00
784,09	28126,00
784,54	26735,00
784,98	26129,00
785,42	26390,00
785,87	25475,00
786,31	28056,00
786,75	28042,00
787,20	28692,00
787,64	24922,00
788,09	25616,00
788,53	27153,00
788,97	25428,00
789,42	26322,00
789,86	25757,00
790,30	26745,00
790,75	25140,00
791,19	25762,00
791,63	28489,00
792,08	25768,00
792,52	26566,00
792,96	25799,00
793,41	34340,00
793,85	28489,00
794,29	26896,00
794,74	26963,00
795,18	26531,00
795,62	25138,00
796,06	27456,00
796,51	26216,00
796,95	26727,00
797,39	25580,00
797,84	25005,00
798,28	26696,00
798,72	28535,00
799,16	27144,00
799,61	25175,00
800,05	29442,00
800,49	27414,00
800,94	25564,00
801,38	27224,00
801,82	26783,00
802,26	25471,00
802,71	28425,00
803,15	29662,00
803,59	27605,00
804,03	26830,00
804,48	26428,00
804,92	25979,00
805,36	29768,00
805,80	30784,00
806,25	29924,00
806,69	27690,00
807,13	30641,00
807,57	26254,00
808,01	26990,00
808,46	24909,00
808,90	27394,00
809,34	26748,00
809,78	26108,00
810,23	25293,00
810,67	27594,00
811,11	29237,00
811,55	32812,00
811,99	26180,00
812,44	25673,00
812,88	27545,00
813,32	29886,00
813,76	28343,00
814,20	26750,00
814,64	27991,00
815,09	27583,00
815,53	27015,00
815,97	25884,00
816,41	25298,00
816,85	25790,00
817,29	28030,00
817,74	26631,00
818,18	28321,00
818,62	25496,00
819,06	27616,00
819,50	28620,00
819,94	26141,00
820,39	27440,00
820,83	26176,00
821,27	26608,00
821,71	25314,00
822,15	29281,00
822,59	25281,00
823,03	26780,00
823,47	27387,00
823,92	25352,00
824,36	26962,00
824,80	26692,00
825,24	27293,00
825,68	27193,00
826,12	25561,00
826,56	26290,00
827,00	23865,00
827,44	26758,00
827,88	28038,00
828,33	28794,00
828,77	25828,00
829,21	28172,00
829,65	27059,00
830,09	25805,00
830,53	29757,00
830,97	25975,00
831,41	30760,00
831,85	28464,00
832,29	27755,00
832,73	24841,00
833,17	26546,00
833,61	26379,00
834,05	28222,00
834,49	27952,00
834,93	26389,00
835,37	25868,00
835,82	28373,00
836,26	26483,00
836,70	26836,00
837,14	26096,00
837,58	28125,00
838,02	25829,00
838,46	25691,00
838,90	26945,00
839,34	26649,00
839,78	29628,00
840,22	30676,00
840,66	27130,00
841,10	28967,00
841,54	24156,00
841,98	25800,00
842,42	24862,00
842,86	26025,00
843,30	27816,00
843,74	26784,00
844,18	28070,00
844,62	26982,00
845,06	25426,00
845,50	27520,00
845,94	26609,00
846,37	27627,00
846,81	25929,00
847,25	25587,00
847,69	26634,00
848,13	25402,00
848,57	26179,00
849,01	25980,00
849,45	27559,00
849,89	28732,00
850,33	27710,00
850,77	26582,00
851,21	28281,00
851,65	25442,00
852,09	27458,00
852,53	28538,00
852,97	25987,00
853,40	25934,00
853,84	27850,00
854,28	24740,00
854,72	28158,00
855,16	24698,00
855,60	25784,00
856,04	28538,00
856,48	29613,00
856,92	26829,00
857,36	27684,00
857,79	26784,00
858,23	25177,00
858,67	29197,00
859,11	24248,00
859,55	25433,00
859,99	26082,00
860,43	26248,00
860,87	26880,00
861,30	28073,00
861,74	25783,00
862,18	26366,00
862,62	26876,00
863,06	25908,00
863,50	25976,00
863,94	27901,00
864,37	25570,00
864,81	26454,00
865,25	26590,00
865,69	24825,00
866,13	26440,00
866,57	24446,00
867,00	27876,00
867,44	25338,00
867,88	27205,00
868,32	26304,00
868,76	25722,00
869,19	27132,00
869,63	26687,00
870,07	28902,00
870,51	31475,00
870,95	24895,00
871,38	26542,00
871,82	26855,00
872,26	25493,00
872,70	26977,00
873,14	27378,00
873,57	26300,00
874,01	28505,00
874,45	28021,00
874,89	26072,00
875,32	25204,00
875,76	28568,00
876,20	24209,00
876,64	27209,00
877,07	26185,00
877,51	26432,00
877,95	26557,00
878,39	26349,00
878,82	27336,00
879,26	26281,00
879,70	29458,00
880,14	25409,00
880,57	25209,00
881,01	25818,00
881,45	26834,00
881,89	28004,00
882,32	26389,00
882,76	26406,00
883,20	26067,00
883,63	26274,00
884,07	25068,00
884,51	27687,00
884,94	26707,00
885,38	27658,00
885,82	27982,00
886,26	25998,00
886,69	25540,00
887,13	29544,00
887,57	25098,00
888,00	25592,00
888,44	26422,00
888,88	25697,00
889,31	31446,00
889,75	24671,00
890,19	28312,00
890,62	25747,00
891,06	27224,00
891,50	26998,00
891,93	24643,00
892,37	25592,00
892,81	26118,00
893,24	25000,00
893,68	25892,00
894,11	27247,00
894,55	26213,00
894,99	27805,00
895,42	26125,00
895,86	25321,00
896,30	26787,00
896,73	27160,00
897,17	25295,00
897,60	25115,00
898,04	25247,00
898,48	26894,00
898,91	28456,00
899,35	25427,00
899,78	25683,00
900,22	25839,00
900,66	27766,00
901,09	27464,00
901,53	25848,00
901,96	29849,00
902,40	30140,00
902,84	25526,00
903,27	25964,00
903,71	29786,00
904,14	25440,00
904,58	27207,00
905,01	25745,00
905,45	25823,00
905,88	25034,00
906,32	28578,00
906,76	26521,00
907,19	28146,00
907,63	26967,00
908,06	26262,00
908,50	27519,00
908,93	29272,00
909,37	26431,00
909,80	24619,00
910,24	27015,00
910,67	26809,00
911,11	25917,00
911,54	25574,00
911,98	26128,00
912,41	26840,00
912,85	26071,00
913,28	27623,00
913,72	27414,00
914,15	26322,00
914,59	24686,00
915,02	25008,00
915,46	25950,00
915,89	25620,00
916,33	27834,00
916,76	25863,00
917,20	28476,00
917,63	25764,00
918,07	28237,00
918,50	25464,00
918,94	26571,00
919,37	26008,00
919,81	27606,00
920,24	27841,00
920,67	26638,00
921,11	29589,00
921,54	27374,00
921,98	26092,00
922,41	25010,00
922,85	24931,00
923,28	27003,00
923,72	29592,00
924,15	27786,00
924,58	24320,00
925,02	27111,00
925,45	25058,00
925,89	27648,00
926,32	30617,00
926,75	26149,00
927,19	27617,00
927,62	24805,00
928,06	30490,00
928,49	26540,00
928,92	24907,00
929,36	28418,00
929,79	25935,00
930,23	27009,00
930,66	27869,00
931,09	25753,00
931,53	27341,00
931,96	23939,00
932,39	29723,00
932,83	28104,00
933,26	31148,00
933,70	26305,00
934,13	28456,00
934,56	28202,00
935,00	27800,00
935,43	27265,00
935,86	25205,00
936,30	26340,00
936,73	25279,00
937,16	27180,00
937,60	25004,00
938,03	27804,00
938,46	25531,00
938,90	25825,00
939,33	27742,00
939,76	25278,00
940,19	26708,00
940,63	27911,00
941,06	30341,00
941,49	25939,00
941,93	28405,00
942,36	25312,00
942,79	25933,00
943,23	27965,00
943,66	25079,00
944,09	24780,00
944,52	27785,00
944,96	26020,00
945,39	27636,00
945,82	26500,00
946,26	26888,00
946,69	26894,00
947,12	28752,00
947,55	26318,00
947,99	26663,00
948,42	27455,00
948,85	24558,00
949,28	24825,00
949,72	24904,00
950,15	31205,00
950,58	29037,00
951,01	26292,00
951,45	25706,00
951,88	27255,00
952,31	24513,00
952,74	27844,00
953,17	25808,00
953,61	30049,00
954,04	24848,00
954,47	25661,00
954,90	25781,00
955,33	25382,00
955,77	26083,00
956,20	27498,00
956,63	25106,00
957,06	27445,00
957,49	31827,00
957,93	24989,00
958,36	27264,00
958,79	26742,00
959,22	25757,00
959,65	25623,00
960,08	25710,00
960,52	24020,00
960,95	26127,00
961,38	27399,00
961,81	27619,00
962,24	28260,00
962,67	27649,00
963,11	25686,00
963,54	26735,00
963,97	25837,00
964,40	26702,00
964,83	26131,00
965,26	25452,00
965,69	27950,00
966,13	25709,00
966,56	26281,00
966,99	27686,00
967,42	25649,00
967,85	25587,00
968,28	28452,00
968,71	33886,00
969,14	27927,00
969,57	26450,00
970,01	27307,00
970,44	25327,00
970,87	25965,00
971,30	27405,00
971,73	25805,00
972,16	26448,00
972,59	24659,00
973,02	25387,00
973,45	26287,00
973,88	27353,00
974,31	26131,00
974,74	27480,00
975,17	26927,00
975,61	25591,00
976,04	25670,00
976,47	25352,00
976,90	26445,00
977,33	25092,00
977,76	27622,00
978,19	26787,00
978,62	25922,00
979,05	26142,00
979,48	25981,00
979,91	28124,00
980,34	27496,00
980,77	25634,00
981,20	26988,00
981,63	28075,00
982,06	26250,00
982,49	26374,00
982,92	25883,00
983,35	25899,00
983,78	25461,00
984,21	28066,00
984,64	27837,00
985,07	24663,00
985,50	24008,00
985,93	26082,00
986,36	27489,00
986,79	25807,00
987,22	25252,00
987,65	27474,00
988,08	26440,00
988,51	26702,00
988,94	26294,00
989,37	26765,00
989,80	26472,00
990,23	26116,00
990,66	26908,00
991,09	26500,00
991,51	26826,00
991,94	29705,00
992,37	25702,00
992,80	25420,00
993,23	26553,00
993,66	25450,00
994,09	25537,00
994,52	27429,00
994,95	27901,00
995,38	26848,00
995,81	26543,00
996,24	24404,00
996,67	24812,00
997,09	23777,00
997,52	28218,00
997,95	28034,00
998,38	25884,00
998,81	27124,00
999,24	25108,00
999,67	29245,00
1000,10	26542,00
1000,53	26445,00
1000,95	28841,00
1001,38	25041,00
1001,81	26776,00
1002,24	27468,00
1002,67	26392,00
1003,10	26888,00
1003,53	26748,00
1003,95	27498,00
1004,38	25145,00
1004,81	26973,00
1005,24	26780,00
1005,67	28715,00
1006,10	26359,00
1006,52	24707,00
1006,95	27193,00
1007,38	26349,00
1007,81	25440,00
1008,24	24556,00
1008,67	25942,00
1009,09	25674,00
1009,52	32990,00
1009,95	28402,00
1010,38	28158,00
1010,81	27197,00
1011,23	27566,00
1011,66	28318,00
1012,09	26003,00
1012,52	27691,00
1012,95	26564,00
1013,37	27179,00
1013,80	27300,00
1014,23	25151,00
1014,66	29040,00
1015,08	24461,00
1015,51	27897,00
1015,94	25815,00
1016,37	26681,00
1016,80	25119,00
1017,22	27051,00
1017,65	25964,00
1018,08	26119,00
1018,51	26530,00
1018,93	24171,00
1019,36	31762,00
1019,79	28424,00
1020,21	27626,00
1020,64	26085,00
1021,07	26535,00
1021,50	27143,00
1021,92	27121,00
1022,35	27378,00
1022,78	26375,00
1023,21	33310,00
1023,63	28590,00
1024,06	28202,00
1024,49	27292,00
1024,91	26962,00
1025,34	27124,00
1025,77	27586,00
1026,19	25045,00
1026,62	25507,00
1027,05	30872,00
1027,47	27643,00
1027,90	27308,00
1028,33	26706,00
1028,75	27312,00
1029,18	25709,00
1029,61	30761,00
1030,03	26997,00
1030,46	26414,00
1030,89	27329,00
1031,31	29236,00
1031,74	25001,00
1032,17	26724,00
1032,59	27874,00
1033,02	25871,00
1033,45	27996,00
1033,87	25638,00
1034,30	25401,00
1034,73	27502,00
1035,15	28042,00
1035,58	25788,00
1036,00	29283,00
1036,43	25822,00
1036,86	26118,00
1037,28	27132,00
1037,71	24570,00
1038,13	27940,00
1038,56	28136,00
1038,99	27936,00
1039,41	28506,00
1039,84	29392,00
1040,26	26302,00
1040,69	26318,00
1041,11	27004,00
1041,54	26120,00
1041,97	29045,00
1042,39	28916,00
1042,82	27873,00
1043,24	28138,00
1043,67	26390,00
1044,09	28181,00
1044,52	25591,00
1044,95	26642,00
1045,37	26050,00
1045,80	24932,00
1046,22	26742,00
1046,65	27734,00
1047,07	25411,00
1047,50	27286,00
1047,92	27964,00
1048,35	25449,00
1048,77	28399,00
1049,20	27872,00
1049,62	28167,00
1050,05	26529,00
1050,47	26311,00
1050,90	27592,00
1051,32	27853,00
1051,75	29216,00
1052,17	28668,00
1052,60	26892,00
1053,02	27282,00
1053,45	23975,00
1053,87	26885,00
1054,30	24445,00
1054,72	26150,00
1055,15	25592,00
1055,57	27276,00
1056,00	27696,00
1056,42	30012,00
1056,85	28488,00
1057,27	28610,00
1057,70	26807,00
1058,12	33699,00
1058,54	25748,00
1058,97	27586,00
1059,39	28098,00
1059,82	26232,00
1060,24	26398,00
1060,67	25856,00
1061,09	28156,00
1061,51	27109,00
1061,94	26098,00
1062,36	28194,00
1062,79	28639,00
1063,21	27091,00
1063,64	26421,00
1064,06	25641,00
1064,48	28027,00
1064,91	28209,00
1065,33	26221,00
1065,76	25532,00
1066,18	24636,00
1066,60	28175,00
1067,03	26940,00
1067,45	26653,00
1067,87	27546,00
1068,30	26097,00
1068,72	29672,00
1069,15	26591,00
1069,57	25997,00
1069,99	25021,00
1070,42	28438,00
1070,84	28593,00
1071,26	28342,00
1071,69	26240,00
1072,11	27722,00
1072,53	26101,00
1072,96	25417,00
1073,38	24570,00
1073,80	27592,00
1074,23	26040,00
1074,65	25090,00
1075,07	26089,00
1075,50	26166,00
1075,92	27186,00
1076,34	25694,00
1076,77	25749,00
1077,19	26457,00
1077,61	28221,00
1078,04	26092,00
1078,46	27883,00
1078,88	29157,00
1079,30	24180,00
1079,73	27245,00
1080,15	25931,00
1080,57	26601,00
1081,00	27232,00
1081,42	26622,00
1081,84	26158,00
1082,26	27323,00
1082,69	26704,00
1083,11	26475,00
1083,53	26623,00
1083,95	26891,00
1084,38	28304,00
1084,80	26855,00
1085,22	26346,00
1085,64	28455,00
1086,07	25411,00
1086,49	26136,00
1086,91	27119,00
1087,33	24606,00
1087,76	27747,00
1088,18	47255,00
1088,60	27760,00
1089,02	25526,00
1089,45	26048,00
1089,87	26280,00
1090,29	28505,00
1090,71	26476,00
1091,13	25485,00
1091,56	25909,00
1091,98	26044,00
1092,40	25484,00
1092,82	26562,00
1093,24	25985,00
1093,66	26474,00
1094,09	26334,00
1094,51	26762,00
1094,93	26024,00
1095,35	26828,00
1095,77	25398,00
1096,19	26540,00
1096,62	27577,00
1097,04	24738,00
1097,46	26541,00
1097,88	25778,00
1098,30	27588,00
1098,72	27043,00
1099,15	27064,00
1099,57	26399,00
1099,99	26002,00
1100,41	25367,00
1100,83	26196,00
1101,25	25824,00
1101,67	26654,00
1102,09	24963,00
1102,52	26079,00
1102,94	26185,00
1103,36	26379,00
1103,78	27049,00
1104,20	25779,00
1104,62	29229,00
1105,04	23751,00
1105,46	26779,00
1105,88	26425,00
1106,30	25532,00
1106,73	26207,00
1107,15	23584,00
1107,57	24165,00
1107,99	27897,00
1108,41	24398,00
1108,83	27036,00
1109,25	27122,00
1109,67	26936,00
1110,09	23976,00
1110,51	25650,00
1110,93	24087,00
1111,35	25234,00
1111,77	24554,00
1112,19	24440,00
1112,61	23675,00
1113,03	25139,00
1113,45	24488,00
1113,87	24490,00
1114,29	25720,00
1114,71	26416,00
1115,13	24723,00
1115,55	25404,00
1115,98	24871,00
1116,40	26294,00
1116,82	25979,00
1117,24	25104,00
1117,66	24304,00
1118,08	1720,00
1118,50	2241,00
1118,91	2183,00
1119,33	2186,00
>>>>>End Processed Spectral Data<<<<<
