SpectraSuite Data File
++++++++++++++++++++++++++++++++++++
Date: Wed May 16 14:14:26 EEST 2012
User: OO Maya
Dark Spectrum Present: No
Reference Spectrum Present: No
Number of Sampled Component Spectra: 1
Spectrometers: MAYP11278
Integration Time (usec): 500000 (MAYP11278)
Spectra Averaged: 1 (MAYP11278)
Boxcar Smoothing: 0 (MAYP11278)
Correct for Electrical Dark: No (MAYP11278)
Strobe/Lamp Enabled: No (MAYP11278)
Correct for Detector Non-linearity: No (MAYP11278)
Correct for Stray Light: No (MAYP11278)
Number of Pixels in Processed Spectrum: 2068
>>>>>Begin Processed Spectral Data<<<<<
188,05	2290,00
188,53	2210,00
189,01	2181,00
189,49	2184,00
189,96	2888,00
190,44	2918,00
190,92	2890,00
191,40	2901,00
191,88	2944,00
192,36	2893,00
192,83	2890,00
193,31	2871,00
193,79	2905,00
194,27	2877,00
194,75	2950,00
195,23	2892,00
195,70	2930,00
196,18	2908,00
196,66	2881,00
197,14	3041,00
197,62	2907,00
198,09	2836,00
198,57	2877,00
199,05	2869,00
199,53	2904,00
200,01	2929,00
200,48	2861,00
200,96	2882,00
201,44	2959,00
201,92	2942,00
202,39	2949,00
202,87	2845,00
203,35	2938,00
203,83	2846,00
204,31	2933,00
204,78	2957,00
205,26	2913,00
205,74	2874,00
206,22	2972,00
206,69	2890,00
207,17	2916,00
207,65	3041,00
208,13	2901,00
208,60	2938,00
209,08	2888,00
209,56	2954,00
210,04	2919,00
210,51	2933,00
210,99	2933,00
211,47	2919,00
211,94	2921,00
212,42	2888,00
212,90	3005,00
213,38	2946,00
213,85	2904,00
214,33	3004,00
214,81	2976,00
215,29	2973,00
215,76	2923,00
216,24	2959,00
216,72	2937,00
217,19	2952,00
217,67	2877,00
218,15	2924,00
218,62	2977,00
219,10	2847,00
219,58	2888,00
220,05	2899,00
220,53	2935,00
221,01	3009,00
221,49	2879,00
221,96	2976,00
222,44	2878,00
222,92	2950,00
223,39	2905,00
223,87	2957,00
224,35	2908,00
224,82	2898,00
225,30	2876,00
225,78	2915,00
226,25	2868,00
226,73	2934,00
227,21	2962,00
227,68	2919,00
228,16	2963,00
228,63	2944,00
229,11	2941,00
229,59	2922,00
230,06	2913,00
230,54	2902,00
231,02	2937,00
231,49	2996,00
231,97	2941,00
232,45	2918,00
232,92	2868,00
233,40	2934,00
233,87	2927,00
234,35	3072,00
234,83	2933,00
235,30	2909,00
235,78	2922,00
236,25	2914,00
236,73	2982,00
237,21	3040,00
237,68	2911,00
238,16	2954,00
238,63	2949,00
239,11	2941,00
239,59	2917,00
240,06	2909,00
240,54	2925,00
241,01	2989,00
241,49	2942,00
241,96	2916,00
242,44	2958,00
242,92	2999,00
243,39	2887,00
243,87	2879,00
244,34	2944,00
244,82	3011,00
245,29	2911,00
245,77	2987,00
246,24	2992,00
246,72	2886,00
247,20	2938,00
247,67	2916,00
248,15	2926,00
248,62	2947,00
249,10	2843,00
249,57	2957,00
250,05	2963,00
250,52	2955,00
251,00	3017,00
251,47	2935,00
251,95	3041,00
252,42	2982,00
252,90	2901,00
253,37	3003,00
253,85	2943,00
254,32	2897,00
254,80	2919,00
255,27	2971,00
255,75	3013,00
256,22	2908,00
256,70	2950,00
257,17	2953,00
257,65	3006,00
258,12	3085,00
258,60	2973,00
259,07	2927,00
259,55	2952,00
260,02	2934,00
260,50	3020,00
260,97	2913,00
261,45	2937,00
261,92	2998,00
262,40	2926,00
262,87	2929,00
263,35	2935,00
263,82	2858,00
264,30	2991,00
264,77	3003,00
265,25	2910,00
265,72	2937,00
266,19	2953,00
266,67	2971,00
267,14	2898,00
267,62	2927,00
268,09	2983,00
268,57	2959,00
269,04	2851,00
269,51	2892,00
269,99	2923,00
270,46	2971,00
270,94	3009,00
271,41	2913,00
271,89	2953,00
272,36	2840,00
272,83	2883,00
273,31	2857,00
273,78	2945,00
274,26	3133,00
274,73	2994,00
275,20	2979,00
275,68	2927,00
276,15	2921,00
276,63	2916,00
277,10	2964,00
277,57	2919,00
278,05	2942,00
278,52	2857,00
279,00	3128,00
279,47	2929,00
279,94	2915,00
280,42	3108,00
280,89	2986,00
281,36	3087,00
281,84	2927,00
282,31	2971,00
282,78	2937,00
283,26	2928,00
283,73	2982,00
284,21	2921,00
284,68	2907,00
285,15	2966,00
285,63	2919,00
286,10	2978,00
286,57	2964,00
287,05	2873,00
287,52	2947,00
287,99	3008,00
288,47	2919,00
288,94	2959,00
289,41	2878,00
289,89	3025,00
290,36	2886,00
290,83	2983,00
291,30	2914,00
291,78	2952,00
292,25	3045,00
292,72	2888,00
293,20	3002,00
293,67	2928,00
294,14	2986,00
294,62	2953,00
295,09	2921,00
295,56	2937,00
296,03	2943,00
296,51	3037,00
296,98	3029,00
297,45	2981,00
297,93	2958,00
298,40	2962,00
298,87	2888,00
299,34	2994,00
299,82	2905,00
300,29	2963,00
300,76	2918,00
301,23	3007,00
301,71	2989,00
302,18	2967,00
302,65	2906,00
303,12	2975,00
303,60	2992,00
304,07	2899,00
304,54	2922,00
305,01	2920,00
305,49	2939,00
305,96	2976,00
306,43	2948,00
306,90	2962,00
307,38	2905,00
307,85	2928,00
308,32	2965,00
308,79	2935,00
309,27	2968,00
309,74	2987,00
310,21	2967,00
310,68	2933,00
311,15	2952,00
311,63	2926,00
312,10	3004,00
312,57	2948,00
313,04	3051,00
313,51	2921,00
313,99	2936,00
314,46	2949,00
314,93	2909,00
315,40	2897,00
315,87	2969,00
316,34	2975,00
316,82	2951,00
317,29	2979,00
317,76	2953,00
318,23	3095,00
318,70	2969,00
319,17	2929,00
319,65	2869,00
320,12	2955,00
320,59	3029,00
321,06	2989,00
321,53	2952,00
322,00	2892,00
322,48	2892,00
322,95	3017,00
323,42	2934,00
323,89	3084,00
324,36	2886,00
324,83	2989,00
325,30	2923,00
325,78	2904,00
326,25	2914,00
326,72	2941,00
327,19	2971,00
327,66	2982,00
328,13	2976,00
328,60	2977,00
329,07	2917,00
329,54	2931,00
330,02	2906,00
330,49	2903,00
330,96	3011,00
331,43	2963,00
331,90	3027,00
332,37	2924,00
332,84	3029,00
333,31	2964,00
333,78	2958,00
334,25	2982,00
334,72	2951,00
335,20	2968,00
335,67	3123,00
336,14	2909,00
336,61	2932,00
337,08	2931,00
337,55	2972,00
338,02	2937,00
338,49	2915,00
338,96	3047,00
339,43	2974,00
339,90	2905,00
340,37	2886,00
340,84	2907,00
341,31	2975,00
341,78	2981,00
342,25	2936,00
342,72	2952,00
343,19	2976,00
343,67	2970,00
344,14	2943,00
344,61	2927,00
345,08	2903,00
345,55	2933,00
346,02	2973,00
346,49	2907,00
346,96	2913,00
347,43	3009,00
347,90	2947,00
348,37	3004,00
348,84	2934,00
349,31	2893,00
349,78	2971,00
350,25	2986,00
350,72	2952,00
351,19	2896,00
351,66	2967,00
352,13	3017,00
352,60	2954,00
353,07	2954,00
353,54	2985,00
354,01	2966,00
354,48	2977,00
354,94	2957,00
355,41	2964,00
355,88	3021,00
356,35	2913,00
356,82	3009,00
357,29	2906,00
357,76	3055,00
358,23	2998,00
358,70	2891,00
359,17	2912,00
359,64	2918,00
360,11	2927,00
360,58	2974,00
361,05	3003,00
361,52	2933,00
361,99	2942,00
362,46	2950,00
362,93	2955,00
363,39	2930,00
363,86	3069,00
364,33	2967,00
364,80	2923,00
365,27	2981,00
365,74	2908,00
366,21	2920,00
366,68	2947,00
367,15	2955,00
367,62	2945,00
368,09	2840,00
368,55	2873,00
369,02	2992,00
369,49	2874,00
369,96	2984,00
370,43	2971,00
370,90	2911,00
371,37	2935,00
371,84	2979,00
372,31	2930,00
372,77	2879,00
373,24	2952,00
373,71	2940,00
374,18	2892,00
374,65	2922,00
375,12	2934,00
375,59	2870,00
376,05	2982,00
376,52	2941,00
376,99	2926,00
377,46	2867,00
377,93	2947,00
378,40	2953,00
378,86	2954,00
379,33	2923,00
379,80	2932,00
380,27	2987,00
380,74	3007,00
381,21	2945,00
381,67	3020,00
382,14	3020,00
382,61	2870,00
383,08	2906,00
383,55	2938,00
384,02	2997,00
384,48	2946,00
384,95	3202,00
385,42	2963,00
385,89	2942,00
386,36	2942,00
386,82	3050,00
387,29	2882,00
387,76	2868,00
388,23	3021,00
388,69	2935,00
389,16	2994,00
389,63	2918,00
390,10	3005,00
390,57	2963,00
391,03	2971,00
391,50	2973,00
391,97	2951,00
392,44	2969,00
392,90	2951,00
393,37	2960,00
393,84	3053,00
394,31	2971,00
394,77	2994,00
395,24	2900,00
395,71	2985,00
396,18	3171,00
396,64	2897,00
397,11	2988,00
397,58	2985,00
398,05	2915,00
398,51	2935,00
398,98	2914,00
399,45	2899,00
399,92	2986,00
400,38	2898,00
400,85	2936,00
401,32	2931,00
401,78	2989,00
402,25	2965,00
402,72	2944,00
403,18	2903,00
403,65	3010,00
404,12	2924,00
404,59	2986,00
405,05	3043,00
405,52	2988,00
405,99	2894,00
406,45	2964,00
406,92	2984,00
407,39	3046,00
407,85	2958,00
408,32	2955,00
408,79	2971,00
409,25	2884,00
409,72	3022,00
410,19	2893,00
410,65	2980,00
411,12	2912,00
411,59	2997,00
412,05	2933,00
412,52	2877,00
412,99	2982,00
413,45	2920,00
413,92	2985,00
414,39	2963,00
414,85	3048,00
415,32	2931,00
415,78	3010,00
416,25	2969,00
416,72	2932,00
417,18	3032,00
417,65	2955,00
418,12	2968,00
418,58	2991,00
419,05	2973,00
419,51	3000,00
419,98	2916,00
420,45	2971,00
420,91	2911,00
421,38	2924,00
421,84	2909,00
422,31	2981,00
422,78	2936,00
423,24	2947,00
423,71	2974,00
424,17	3000,00
424,64	2949,00
425,11	3011,00
425,57	2965,00
426,04	3002,00
426,50	2912,00
426,97	3037,00
427,43	3021,00
427,90	2993,00
428,37	2881,00
428,83	3021,00
429,30	2951,00
429,76	2968,00
430,23	2922,00
430,69	3120,00
431,16	2883,00
431,62	2941,00
432,09	3021,00
432,55	3011,00
433,02	2943,00
433,48	2930,00
433,95	2983,00
434,42	2954,00
434,88	2973,00
435,35	2906,00
435,81	2980,00
436,28	2942,00
436,74	2879,00
437,21	2991,00
437,67	2933,00
438,14	2940,00
438,60	2926,00
439,07	2924,00
439,53	3187,00
440,00	2992,00
440,46	2958,00
440,93	3009,00
441,39	2937,00
441,86	2911,00
442,32	3107,00
442,79	2896,00
443,25	2969,00
443,72	2989,00
444,18	2894,00
444,64	3041,00
445,11	2975,00
445,57	2968,00
446,04	2954,00
446,50	2979,00
446,97	2944,00
447,43	2955,00
447,90	2932,00
448,36	2917,00
448,83	2930,00
449,29	2990,00
449,75	2978,00
450,22	2913,00
450,68	2930,00
451,15	2914,00
451,61	2937,00
452,08	2995,00
452,54	2926,00
453,00	2974,00
453,47	2939,00
453,93	2905,00
454,40	2982,00
454,86	2972,00
455,32	2936,00
455,79	2962,00
456,25	3003,00
456,72	2911,00
457,18	2988,00
457,64	2943,00
458,11	2956,00
458,57	2933,00
459,04	2966,00
459,50	2943,00
459,96	2963,00
460,43	2946,00
460,89	2923,00
461,36	3030,00
461,82	2980,00
462,28	2909,00
462,75	2913,00
463,21	2983,00
463,67	2920,00
464,14	2954,00
464,60	2955,00
465,06	2891,00
465,53	2929,00
465,99	3011,00
466,45	2954,00
466,92	2968,00
467,38	3008,00
467,84	2938,00
468,31	2943,00
468,77	2980,00
469,23	2932,00
469,70	2908,00
470,16	2980,00
470,62	2947,00
471,09	2923,00
471,55	2937,00
472,01	2919,00
472,48	2893,00
472,94	2950,00
473,40	3009,00
473,87	2933,00
474,33	2913,00
474,79	2954,00
475,25	2905,00
475,72	2978,00
476,18	2948,00
476,64	2967,00
477,11	2952,00
477,57	2959,00
478,03	3023,00
478,49	2955,00
478,96	2988,00
479,42	2887,00
479,88	3034,00
480,35	2981,00
480,81	2933,00
481,27	2912,00
481,73	2925,00
482,20	2923,00
482,66	2895,00
483,12	2938,00
483,58	2864,00
484,05	2911,00
484,51	3023,00
484,97	2970,00
485,43	2934,00
485,89	2850,00
486,36	2942,00
486,82	2866,00
487,28	2957,00
487,74	2925,00
488,21	2883,00
488,67	2903,00
489,13	2952,00
489,59	2944,00
490,05	2978,00
490,52	2886,00
490,98	2936,00
491,44	2913,00
491,90	2889,00
492,36	2869,00
492,83	2995,00
493,29	2969,00
493,75	2944,00
494,21	2897,00
494,67	2947,00
495,14	2919,00
495,60	2890,00
496,06	2985,00
496,52	2927,00
496,98	2951,00
497,44	3042,00
497,91	2975,00
498,37	2920,00
498,83	2903,00
499,29	2924,00
499,75	3057,00
500,21	2912,00
500,67	2917,00
501,14	2933,00
501,60	2922,00
502,06	2984,00
502,52	2924,00
502,98	2966,00
503,44	2909,00
503,90	2943,00
504,37	2907,00
504,83	2973,00
505,29	2939,00
505,75	2912,00
506,21	2897,00
506,67	2977,00
507,13	2903,00
507,59	2965,00
508,05	2992,00
508,51	2919,00
508,98	2887,00
509,44	2873,00
509,90	2867,00
510,36	2899,00
510,82	2916,00
511,28	2981,00
511,74	3026,00
512,20	2908,00
512,66	2861,00
513,12	2882,00
513,58	2982,00
514,04	2852,00
514,51	2993,00
514,97	3012,00
515,43	2873,00
515,89	2952,00
516,35	2961,00
516,81	2974,00
517,27	3076,00
517,73	2961,00
518,19	2949,00
518,65	3115,00
519,11	2921,00
519,57	2884,00
520,03	2895,00
520,49	2889,00
520,95	2976,00
521,41	2960,00
521,87	2966,00
522,33	2937,00
522,79	2887,00
523,25	3012,00
523,71	3008,00
524,17	2934,00
524,63	2994,00
525,09	2945,00
525,55	2991,00
526,01	3031,00
526,47	2943,00
526,93	2942,00
527,39	2973,00
527,85	2918,00
528,31	2973,00
528,77	2956,00
529,23	2920,00
529,69	2899,00
530,15	2950,00
530,61	2939,00
531,07	2884,00
531,53	2993,00
531,99	2924,00
532,45	2942,00
532,91	2957,00
533,37	2971,00
533,83	2931,00
534,29	2875,00
534,75	2932,00
535,21	2926,00
535,67	2953,00
536,12	2889,00
536,58	2957,00
537,04	2915,00
537,50	2976,00
537,96	2936,00
538,42	2953,00
538,88	3031,00
539,34	2981,00
539,80	3209,00
540,26	2872,00
540,72	3015,00
541,18	2981,00
541,63	2885,00
542,09	2932,00
542,55	2967,00
543,01	2949,00
543,47	3100,00
543,93	2899,00
544,39	3057,00
544,85	2974,00
545,31	2962,00
545,76	2913,00
546,22	2990,00
546,68	2927,00
547,14	2990,00
547,60	2959,00
548,06	2945,00
548,52	2911,00
548,98	2944,00
549,43	2940,00
549,89	3043,00
550,35	2921,00
550,81	2882,00
551,27	2978,00
551,73	2963,00
552,19	3028,00
552,64	2943,00
553,10	2909,00
553,56	2958,00
554,02	2938,00
554,48	2923,00
554,93	2941,00
555,39	2949,00
555,85	3033,00
556,31	2958,00
556,77	2989,00
557,23	2876,00
557,68	2949,00
558,14	3069,00
558,60	2902,00
559,06	2924,00
559,52	2899,00
559,97	2939,00
560,43	2921,00
560,89	2939,00
561,35	2931,00
561,81	2955,00
562,26	2907,00
562,72	2893,00
563,18	2945,00
563,64	3009,00
564,09	2904,00
564,55	2952,00
565,01	2924,00
565,47	2936,00
565,92	2985,00
566,38	2989,00
566,84	2908,00
567,30	2907,00
567,75	2918,00
568,21	2984,00
568,67	2911,00
569,13	2941,00
569,58	3017,00
570,04	2951,00
570,50	2942,00
570,96	2977,00
571,41	2976,00
571,87	2968,00
572,33	2976,00
572,78	2973,00
573,24	2883,00
573,70	2921,00
574,16	2954,00
574,61	2988,00
575,07	2992,00
575,53	2874,00
575,98	2967,00
576,44	2911,00
576,90	2992,00
577,36	2934,00
577,81	2910,00
578,27	2899,00
578,73	3011,00
579,18	2955,00
579,64	2925,00
580,10	2971,00
580,55	2942,00
581,01	2937,00
581,47	2931,00
581,92	2942,00
582,38	2938,00
582,84	2899,00
583,29	2952,00
583,75	2975,00
584,21	2941,00
584,66	2966,00
585,12	2899,00
585,57	3060,00
586,03	2914,00
586,49	2931,00
586,94	2929,00
587,40	2933,00
587,86	2981,00
588,31	2888,00
588,77	2964,00
589,22	2925,00
589,68	2914,00
590,14	2961,00
590,59	2990,00
591,05	2911,00
591,51	2865,00
591,96	3012,00
592,42	2970,00
592,87	2961,00
593,33	2921,00
593,78	3004,00
594,24	2938,00
594,70	2968,00
595,15	2982,00
595,61	2903,00
596,06	2891,00
596,52	2997,00
596,98	2952,00
597,43	3017,00
597,89	2960,00
598,34	2891,00
598,80	2926,00
599,25	3022,00
599,71	2935,00
600,16	2949,00
600,62	3009,00
601,08	2971,00
601,53	2991,00
601,99	2877,00
602,44	3097,00
602,90	2944,00
603,35	2915,00
603,81	2890,00
604,26	2873,00
604,72	2975,00
605,17	2956,00
605,63	2951,00
606,08	2962,00
606,54	2854,00
606,99	2933,00
607,45	2921,00
607,90	2938,00
608,36	2955,00
608,81	2961,00
609,27	3052,00
609,72	2990,00
610,18	2933,00
610,63	2940,00
611,09	2940,00
611,54	2898,00
612,00	3005,00
612,45	2950,00
612,91	2951,00
613,36	3133,00
613,82	2883,00
614,27	2903,00
614,73	2906,00
615,18	2903,00
615,64	2940,00
616,09	2945,00
616,54	2922,00
617,00	2947,00
617,45	2952,00
617,91	3017,00
618,36	2917,00
618,82	2929,00
619,27	2901,00
619,72	3016,00
620,18	2955,00
620,63	2971,00
621,09	3001,00
621,54	2938,00
622,00	2986,00
622,45	2971,00
622,90	3006,00
623,36	2905,00
623,81	2918,00
624,27	3013,00
624,72	2902,00
625,17	2918,00
625,63	2940,00
626,08	2908,00
626,54	2922,00
626,99	2941,00
627,44	2931,00
627,90	2979,00
628,35	3017,00
628,81	2873,00
629,26	2953,00
629,71	3002,00
630,17	2891,00
630,62	2948,00
631,07	2940,00
631,53	2975,00
631,98	2957,00
632,43	3001,00
632,89	2921,00
633,34	2927,00
633,79	2910,00
634,25	2916,00
634,70	2914,00
635,15	2939,00
635,61	2904,00
636,06	2890,00
636,51	2955,00
636,97	2939,00
637,42	2898,00
637,87	2966,00
638,33	2984,00
638,78	2916,00
639,23	2923,00
639,69	2916,00
640,14	2893,00
640,59	2958,00
641,05	2983,00
641,50	2879,00
641,95	2918,00
642,40	2927,00
642,86	2865,00
643,31	2926,00
643,76	2966,00
644,22	2902,00
644,67	2910,00
645,12	2945,00
645,57	2906,00
646,03	2930,00
646,48	2955,00
646,93	2960,00
647,38	2989,00
647,84	2950,00
648,29	2943,00
648,74	2907,00
649,19	2985,00
649,65	2985,00
650,10	3164,00
650,55	2910,00
651,00	2889,00
651,46	2913,00
651,91	2949,00
652,36	2892,00
652,81	2954,00
653,27	2941,00
653,72	2890,00
654,17	2927,00
654,62	2954,00
655,07	2932,00
655,53	2913,00
655,98	2974,00
656,43	2887,00
656,88	2915,00
657,33	2979,00
657,79	2973,00
658,24	2901,00
658,69	2946,00
659,14	2897,00
659,59	3149,00
660,05	2901,00
660,50	3013,00
660,95	2936,00
661,40	2913,00
661,85	2951,00
662,30	2891,00
662,76	2882,00
663,21	2954,00
663,66	2925,00
664,11	2924,00
664,56	2930,00
665,01	2858,00
665,47	2950,00
665,92	2901,00
666,37	2964,00
666,82	2937,00
667,27	3079,00
667,72	2992,00
668,17	2914,00
668,62	2960,00
669,08	2890,00
669,53	3060,00
669,98	2878,00
670,43	2912,00
670,88	3006,00
671,33	2945,00
671,78	3039,00
672,23	3075,00
672,69	2883,00
673,14	2938,00
673,59	2995,00
674,04	3128,00
674,49	2957,00
674,94	2963,00
675,39	2867,00
675,84	2868,00
676,29	2899,00
676,74	2921,00
677,19	2930,00
677,64	2919,00
678,10	3092,00
678,55	2925,00
679,00	2905,00
679,45	2934,00
679,90	2929,00
680,35	2936,00
680,80	2950,00
681,25	2877,00
681,70	2823,00
682,15	2933,00
682,60	2913,00
683,05	2993,00
683,50	2974,00
683,95	2933,00
684,40	3019,00
684,85	2953,00
685,30	2954,00
685,75	2949,00
686,20	2915,00
686,65	2890,00
687,10	2932,00
687,55	2885,00
688,00	2937,00
688,45	2916,00
688,90	3068,00
689,35	3005,00
689,80	2865,00
690,25	2925,00
690,70	2924,00
691,15	2867,00
691,60	2935,00
692,05	2863,00
692,50	2931,00
692,95	2933,00
693,40	3009,00
693,85	2971,00
694,30	2911,00
694,75	2949,00
695,20	3211,00
695,65	2976,00
696,10	2975,00
696,55	3052,00
697,00	2938,00
697,45	2922,00
697,90	2941,00
698,35	2904,00
698,80	2994,00
699,24	2999,00
699,69	2917,00
700,14	2914,00
700,59	2983,00
701,04	2998,00
701,49	3123,00
701,94	2915,00
702,39	2995,00
702,84	2931,00
703,29	2924,00
703,74	2922,00
704,19	2906,00
704,63	2919,00
705,08	3010,00
705,53	3000,00
705,98	2988,00
706,43	2882,00
706,88	2981,00
707,33	2934,00
707,78	2928,00
708,22	2957,00
708,67	2981,00
709,12	2950,00
709,57	2909,00
710,02	2956,00
710,47	2950,00
710,92	2893,00
711,37	2990,00
711,81	2959,00
712,26	2954,00
712,71	2875,00
713,16	3041,00
713,61	2946,00
714,06	2964,00
714,50	3065,00
714,95	3022,00
715,40	2934,00
715,85	2966,00
716,30	2913,00
716,75	2895,00
717,19	2910,00
717,64	2890,00
718,09	2933,00
718,54	3047,00
718,99	2915,00
719,43	2882,00
719,88	2923,00
720,33	2920,00
720,78	2918,00
721,23	2960,00
721,67	2913,00
722,12	2958,00
722,57	2932,00
723,02	2895,00
723,47	2865,00
723,91	2927,00
724,36	2874,00
724,81	2929,00
725,26	2901,00
725,70	2935,00
726,15	2946,00
726,60	2952,00
727,05	3030,00
727,49	2905,00
727,94	3011,00
728,39	2972,00
728,84	2907,00
729,28	2987,00
729,73	2911,00
730,18	2987,00
730,63	2904,00
731,07	2969,00
731,52	2996,00
731,97	2951,00
732,41	2953,00
732,86	2876,00
733,31	2983,00
733,76	2928,00
734,20	2908,00
734,65	2951,00
735,10	2969,00
735,54	2950,00
735,99	3090,00
736,44	2897,00
736,89	2970,00
737,33	2981,00
737,78	2980,00
738,23	2920,00
738,67	2918,00
739,12	2935,00
739,57	2898,00
740,01	3013,00
740,46	2980,00
740,91	2892,00
741,35	2954,00
741,80	2985,00
742,25	2945,00
742,69	2974,00
743,14	2913,00
743,59	2906,00
744,03	2962,00
744,48	3016,00
744,92	3003,00
745,37	2945,00
745,82	2991,00
746,26	3032,00
746,71	2865,00
747,16	2896,00
747,60	2849,00
748,05	2979,00
748,49	2952,00
748,94	2933,00
749,39	2951,00
749,83	3106,00
750,28	2973,00
750,73	2925,00
751,17	2894,00
751,62	2934,00
752,06	2938,00
752,51	2917,00
752,95	3082,00
753,40	2913,00
753,85	2934,00
754,29	2904,00
754,74	2919,00
755,18	2941,00
755,63	2950,00
756,07	2955,00
756,52	3007,00
756,97	2918,00
757,41	3029,00
757,86	2941,00
758,30	2949,00
758,75	2960,00
759,19	2916,00
759,64	2871,00
760,08	2933,00
760,53	2932,00
760,98	2947,00
761,42	2961,00
761,87	3009,00
762,31	2917,00
762,76	2885,00
763,20	2915,00
763,65	2969,00
764,09	2951,00
764,54	2902,00
764,98	2912,00
765,43	2917,00
765,87	2891,00
766,32	2863,00
766,76	2895,00
767,21	2958,00
767,65	2935,00
768,10	2938,00
768,54	2965,00
768,99	2924,00
769,43	3032,00
769,88	2899,00
770,32	2948,00
770,77	2926,00
771,21	2911,00
771,65	2975,00
772,10	2973,00
772,54	2966,00
772,99	2892,00
773,43	2936,00
773,88	2947,00
774,32	2841,00
774,77	2933,00
775,21	2911,00
775,65	2954,00
776,10	2941,00
776,54	2893,00
776,99	2917,00
777,43	2942,00
777,88	2972,00
778,32	2936,00
778,76	2931,00
779,21	2941,00
779,65	3104,00
780,10	3053,00
780,54	2942,00
780,99	2991,00
781,43	2942,00
781,87	2931,00
782,32	2966,00
782,76	2904,00
783,20	2941,00
783,65	2952,00
784,09	3006,00
784,54	2924,00
784,98	2905,00
785,42	2931,00
785,87	2918,00
786,31	2982,00
786,75	2975,00
787,20	3002,00
787,64	2878,00
788,09	2923,00
788,53	2946,00
788,97	2903,00
789,42	2955,00
789,86	2896,00
790,30	2953,00
790,75	2901,00
791,19	2921,00
791,63	2998,00
792,08	2958,00
792,52	2958,00
792,96	2889,00
793,41	3199,00
793,85	2963,00
794,29	2960,00
794,74	2938,00
795,18	2939,00
795,62	2876,00
796,06	2933,00
796,51	2950,00
796,95	2944,00
797,39	2923,00
797,84	2923,00
798,28	2898,00
798,72	2995,00
799,16	2934,00
799,61	2883,00
800,05	3024,00
800,49	2964,00
800,94	2892,00
801,38	2957,00
801,82	2958,00
802,26	2908,00
802,71	2998,00
803,15	3019,00
803,59	2994,00
804,03	2933,00
804,48	2934,00
804,92	2913,00
805,36	3039,00
805,80	3066,00
806,25	3047,00
806,69	2968,00
807,13	3048,00
807,57	2917,00
808,01	2930,00
808,46	2897,00
808,90	2964,00
809,34	2945,00
809,78	2912,00
810,23	2891,00
810,67	2988,00
811,11	3001,00
811,55	3119,00
811,99	2919,00
812,44	2904,00
812,88	2970,00
813,32	3053,00
813,76	3006,00
814,20	2913,00
814,64	2976,00
815,09	2967,00
815,53	2946,00
815,97	2902,00
816,41	2901,00
816,85	2916,00
817,29	2969,00
817,74	2934,00
818,18	2968,00
818,62	2917,00
819,06	2961,00
819,50	2981,00
819,94	2903,00
820,39	2948,00
820,83	2914,00
821,27	2944,00
821,71	2894,00
822,15	3028,00
822,59	2883,00
823,03	2928,00
823,47	2954,00
823,92	2889,00
824,36	2922,00
824,80	2927,00
825,24	2943,00
825,68	2949,00
826,12	2883,00
826,56	2899,00
827,00	2844,00
827,44	2932,00
827,88	2998,00
828,33	2985,00
828,77	2879,00
829,21	3019,00
829,65	2945,00
830,09	2942,00
830,53	3037,00
830,97	2934,00
831,41	3053,00
831,85	2982,00
832,29	2984,00
832,73	2902,00
833,17	2924,00
833,61	2932,00
834,05	2961,00
834,49	2948,00
834,93	2934,00
835,37	2927,00
835,82	2985,00
836,26	2917,00
836,70	2973,00
837,14	2905,00
837,58	2992,00
838,02	2899,00
838,46	2922,00
838,90	2959,00
839,34	2936,00
839,78	3023,00
840,22	3059,00
840,66	2957,00
841,10	2976,00
841,54	2867,00
841,98	2915,00
842,42	2882,00
842,86	2899,00
843,30	2969,00
843,74	2929,00
844,18	2988,00
844,62	2913,00
845,06	2896,00
845,50	2965,00
845,94	2932,00
846,37	2957,00
846,81	2925,00
847,25	2907,00
847,69	2951,00
848,13	2903,00
848,57	2927,00
849,01	2913,00
849,45	2951,00
849,89	3030,00
850,33	2958,00
850,77	2927,00
851,21	3001,00
851,65	2881,00
852,09	2957,00
852,53	2978,00
852,97	2939,00
853,40	2877,00
853,84	2925,00
854,28	2890,00
854,72	2978,00
855,16	2867,00
855,60	2923,00
856,04	2983,00
856,48	3033,00
856,92	2941,00
857,36	2964,00
857,79	2947,00
858,23	2922,00
858,67	3030,00
859,11	2847,00
859,55	2913,00
859,99	2900,00
860,43	2923,00
860,87	2925,00
861,30	2962,00
861,74	2907,00
862,18	2920,00
862,62	2977,00
863,06	2894,00
863,50	2905,00
863,94	2969,00
864,37	2906,00
864,81	2934,00
865,25	2917,00
865,69	2879,00
866,13	2911,00
866,57	2876,00
867,00	2973,00
867,44	2904,00
867,88	2969,00
868,32	2909,00
868,76	2901,00
869,19	2949,00
869,63	2931,00
870,07	3017,00
870,51	3092,00
870,95	2885,00
871,38	2932,00
871,82	2968,00
872,26	2889,00
872,70	2918,00
873,14	2964,00
873,57	2933,00
874,01	2979,00
874,45	2965,00
874,89	2904,00
875,32	2909,00
875,76	2978,00
876,20	2868,00
876,64	2959,00
877,07	2932,00
877,51	2963,00
877,95	2940,00
878,39	2919,00
878,82	2949,00
879,26	2934,00
879,70	3042,00
880,14	2900,00
880,57	2880,00
881,01	2914,00
881,45	2933,00
881,89	2995,00
882,32	2942,00
882,76	2921,00
883,20	2904,00
883,63	2894,00
884,07	2904,00
884,51	2943,00
884,94	2918,00
885,38	2967,00
885,82	2974,00
886,26	2913,00
886,69	2890,00
887,13	3044,00
887,57	2896,00
888,00	2885,00
888,44	2913,00
888,88	2921,00
889,31	3123,00
889,75	2867,00
890,19	2989,00
890,62	2926,00
891,06	2946,00
891,50	2955,00
891,93	2898,00
892,37	2913,00
892,81	2899,00
893,24	2877,00
893,68	2901,00
894,11	2960,00
894,55	2903,00
894,99	2970,00
895,42	2921,00
895,86	2872,00
896,30	2935,00
896,73	2964,00
897,17	2863,00
897,60	2897,00
898,04	2895,00
898,48	2950,00
898,91	2933,00
899,35	2895,00
899,78	2913,00
900,22	2908,00
900,66	2951,00
901,09	2959,00
901,53	2899,00
901,96	3055,00
902,40	3040,00
902,84	2892,00
903,27	2953,00
903,71	3034,00
904,14	2888,00
904,58	2913,00
905,01	2907,00
905,45	2924,00
905,88	2875,00
906,32	2946,00
906,76	2939,00
907,19	2952,00
907,63	2932,00
908,06	2920,00
908,50	2939,00
908,93	3028,00
909,37	2901,00
909,80	2868,00
910,24	2930,00
910,67	2891,00
911,11	2912,00
911,54	2917,00
911,98	2895,00
912,41	2921,00
912,85	2903,00
913,28	2985,00
913,72	2939,00
914,15	2915,00
914,59	2899,00
915,02	2850,00
915,46	2901,00
915,89	2913,00
916,33	2983,00
916,76	2885,00
917,20	2975,00
917,63	2918,00
918,07	2980,00
918,50	2895,00
918,94	2925,00
919,37	2916,00
919,81	2933,00
920,24	2972,00
920,67	2941,00
921,11	2995,00
921,54	2959,00
921,98	2897,00
922,41	2911,00
922,85	2904,00
923,28	2938,00
923,72	3014,00
924,15	2974,00
924,58	2887,00
925,02	2930,00
925,45	2907,00
925,89	2957,00
926,32	3013,00
926,75	2917,00
927,19	2943,00
927,62	2875,00
928,06	3042,00
928,49	2906,00
928,92	2868,00
929,36	2977,00
929,79	2934,00
930,23	2944,00
930,66	2981,00
931,09	2920,00
931,53	2952,00
931,96	2854,00
932,39	2982,00
932,83	2983,00
933,26	3096,00
933,70	2893,00
934,13	2976,00
934,56	2981,00
935,00	2974,00
935,43	2924,00
935,86	2856,00
936,30	2915,00
936,73	2893,00
937,16	2936,00
937,60	2877,00
938,03	2950,00
938,46	2902,00
938,90	2919,00
939,33	2948,00
939,76	2880,00
940,19	2926,00
940,63	2944,00
941,06	3030,00
941,49	2866,00
941,93	3008,00
942,36	2859,00
942,79	2919,00
943,23	2919,00
943,66	2886,00
944,09	2885,00
944,52	2923,00
944,96	2909,00
945,39	2956,00
945,82	2920,00
946,26	2927,00
946,69	2951,00
947,12	2996,00
947,55	2908,00
947,99	2927,00
948,42	2960,00
948,85	2875,00
949,28	2852,00
949,72	2880,00
950,15	3068,00
950,58	3001,00
951,01	2908,00
951,45	2889,00
951,88	2950,00
952,31	2858,00
952,74	2941,00
953,17	2899,00
953,61	2999,00
954,04	2861,00
954,47	2889,00
954,90	2885,00
955,33	2898,00
955,77	2915,00
956,20	2905,00
956,63	2896,00
957,06	2929,00
957,49	3080,00
957,93	2859,00
958,36	2925,00
958,79	2960,00
959,22	2890,00
959,65	2912,00
960,08	2885,00
960,52	2837,00
960,95	2885,00
961,38	2965,00
961,81	2948,00
962,24	2983,00
962,67	2959,00
963,11	2901,00
963,54	2943,00
963,97	2898,00
964,40	2902,00
964,83	2908,00
965,26	2901,00
965,69	2954,00
966,13	2916,00
966,56	2902,00
966,99	2936,00
967,42	2898,00
967,85	2899,00
968,28	2992,00
968,71	3133,00
969,14	2937,00
969,57	2929,00
970,01	2962,00
970,44	2900,00
970,87	2907,00
971,30	2959,00
971,73	2910,00
972,16	2901,00
972,59	2853,00
973,02	2875,00
973,45	2932,00
973,88	2926,00
974,31	2939,00
974,74	2956,00
975,17	2927,00
975,61	2877,00
976,04	2878,00
976,47	2896,00
976,90	2938,00
977,33	2880,00
977,76	2934,00
978,19	2916,00
978,62	2920,00
979,05	2922,00
979,48	2904,00
979,91	2980,00
980,34	2944,00
980,77	2894,00
981,20	2908,00
981,63	2972,00
982,06	2905,00
982,49	2915,00
982,92	2886,00
983,35	2889,00
983,78	2894,00
984,21	2967,00
984,64	2962,00
985,07	2868,00
985,50	2859,00
985,93	2895,00
986,36	2971,00
986,79	2911,00
987,22	2869,00
987,65	2939,00
988,08	2912,00
988,51	2949,00
988,94	2897,00
989,37	2947,00
989,80	2929,00
990,23	2912,00
990,66	2938,00
991,09	2905,00
991,51	2945,00
991,94	3002,00
992,37	2913,00
992,80	2899,00
993,23	2898,00
993,66	2877,00
994,09	2888,00
994,52	2914,00
994,95	2949,00
995,38	2943,00
995,81	2903,00
996,24	2863,00
996,67	2878,00
997,09	2824,00
997,52	2972,00
997,95	2966,00
998,38	2910,00
998,81	2931,00
999,24	2865,00
999,67	3001,00
1000,10	2948,00
1000,53	2935,00
1000,95	3000,00
1001,38	2896,00
1001,81	2909,00
1002,24	2963,00
1002,67	2891,00
1003,10	2935,00
1003,53	2958,00
1003,95	2959,00
1004,38	2880,00
1004,81	2935,00
1005,24	2923,00
1005,67	2987,00
1006,10	2896,00
1006,52	2877,00
1006,95	2969,00
1007,38	2935,00
1007,81	2889,00
1008,24	2854,00
1008,67	2921,00
1009,09	2895,00
1009,52	3125,00
1009,95	2968,00
1010,38	3004,00
1010,81	2958,00
1011,23	2940,00
1011,66	2981,00
1012,09	2922,00
1012,52	2934,00
1012,95	2937,00
1013,37	2935,00
1013,80	2943,00
1014,23	2871,00
1014,66	3002,00
1015,08	2881,00
1015,51	2958,00
1015,94	2926,00
1016,37	2944,00
1016,80	2883,00
1017,22	2947,00
1017,65	2890,00
1018,08	2924,00
1018,51	2941,00
1018,93	2841,00
1019,36	3076,00
1019,79	2986,00
1020,21	2944,00
1020,64	2927,00
1021,07	2916,00
1021,50	2970,00
1021,92	2956,00
1022,35	2947,00
1022,78	2892,00
1023,21	3125,00
1023,63	2932,00
1024,06	2977,00
1024,49	2943,00
1024,91	2909,00
1025,34	2943,00
1025,77	2970,00
1026,19	2867,00
1026,62	2884,00
1027,05	3032,00
1027,47	2928,00
1027,90	2930,00
1028,33	2944,00
1028,75	2917,00
1029,18	2909,00
1029,61	3036,00
1030,03	2947,00
1030,46	2921,00
1030,89	2958,00
1031,31	3027,00
1031,74	2869,00
1032,17	2932,00
1032,59	2949,00
1033,02	2920,00
1033,45	2952,00
1033,87	2927,00
1034,30	2905,00
1034,73	2933,00
1035,15	2953,00
1035,58	2892,00
1036,00	3025,00
1036,43	2899,00
1036,86	2876,00
1037,28	2912,00
1037,71	2843,00
1038,13	2981,00
1038,56	2949,00
1038,99	2921,00
1039,41	2939,00
1039,84	3006,00
1040,26	2897,00
1040,69	2890,00
1041,11	2941,00
1041,54	2923,00
1041,97	3012,00
1042,39	2972,00
1042,82	2950,00
1043,24	2974,00
1043,67	2927,00
1044,09	2951,00
1044,52	2863,00
1044,95	2921,00
1045,37	2921,00
1045,80	2872,00
1046,22	2937,00
1046,65	2967,00
1047,07	2878,00
1047,50	2943,00
1047,92	2989,00
1048,35	2895,00
1048,77	2947,00
1049,20	2949,00
1049,62	2966,00
1050,05	2926,00
1050,47	2886,00
1050,90	2950,00
1051,32	2964,00
1051,75	2975,00
1052,17	2977,00
1052,60	2917,00
1053,02	2964,00
1053,45	2856,00
1053,87	2947,00
1054,30	2852,00
1054,72	2924,00
1055,15	2880,00
1055,57	2932,00
1056,00	2966,00
1056,42	3006,00
1056,85	3011,00
1057,27	2990,00
1057,70	2928,00
1058,12	3157,00
1058,54	2867,00
1058,97	2965,00
1059,39	2960,00
1059,82	2913,00
1060,24	2918,00
1060,67	2889,00
1061,09	2991,00
1061,51	2925,00
1061,94	2911,00
1062,36	2995,00
1062,79	2988,00
1063,21	2926,00
1063,64	2919,00
1064,06	2889,00
1064,48	2963,00
1064,91	2969,00
1065,33	2940,00
1065,76	2893,00
1066,18	2855,00
1066,60	2973,00
1067,03	2940,00
1067,45	2920,00
1067,87	2928,00
1068,30	2877,00
1068,72	2979,00
1069,15	2950,00
1069,57	2923,00
1069,99	2851,00
1070,42	2977,00
1070,84	2980,00
1071,26	2982,00
1071,69	2915,00
1072,11	2943,00
1072,53	2911,00
1072,96	2870,00
1073,38	2864,00
1073,80	2960,00
1074,23	2911,00
1074,65	2850,00
1075,07	2904,00
1075,50	2901,00
1075,92	2935,00
1076,34	2901,00
1076,77	2914,00
1077,19	2917,00
1077,61	2944,00
1078,04	2925,00
1078,46	2945,00
1078,88	3007,00
1079,30	2844,00
1079,73	2943,00
1080,15	2882,00
1080,57	2921,00
1081,00	2965,00
1081,42	2929,00
1081,84	2902,00
1082,26	2938,00
1082,69	2919,00
1083,11	2938,00
1083,53	2892,00
1083,95	2924,00
1084,38	2975,00
1084,80	2923,00
1085,22	2898,00
1085,64	2977,00
1086,07	2898,00
1086,49	2907,00
1086,91	2950,00
1087,33	2854,00
1087,76	2990,00
1088,18	4427,00
1088,60	2938,00
1089,02	2905,00
1089,45	2879,00
1089,87	2903,00
1090,29	2974,00
1090,71	2907,00
1091,13	2898,00
1091,56	2924,00
1091,98	2930,00
1092,40	2875,00
1092,82	2907,00
1093,24	2924,00
1093,66	2895,00
1094,09	2923,00
1094,51	2912,00
1094,93	2903,00
1095,35	2927,00
1095,77	2872,00
1096,19	2905,00
1096,62	2959,00
1097,04	2852,00
1097,46	2906,00
1097,88	2903,00
1098,30	2923,00
1098,72	2903,00
1099,15	2979,00
1099,57	2893,00
1099,99	2935,00
1100,41	2874,00
1100,83	2903,00
1101,25	2905,00
1101,67	2908,00
1102,09	2876,00
1102,52	2876,00
1102,94	2878,00
1103,36	2908,00
1103,78	2923,00
1104,20	2889,00
1104,62	3014,00
1105,04	2845,00
1105,46	2901,00
1105,88	2896,00
1106,30	2873,00
1106,73	2927,00
1107,15	2829,00
1107,57	2855,00
1107,99	2970,00
1108,41	2854,00
1108,83	2929,00
1109,25	2931,00
1109,67	2928,00
1110,09	2838,00
1110,51	2900,00
1110,93	2858,00
1111,35	2871,00
1111,77	2850,00
1112,19	2865,00
1112,61	2834,00
1113,03	2873,00
1113,45	2851,00
1113,87	2830,00
1114,29	2902,00
1114,71	2956,00
1115,13	2849,00
1115,55	2888,00
1115,98	2878,00
1116,40	2881,00
1116,82	2908,00
1117,24	2856,00
1117,66	2851,00
1118,08	2172,00
1118,50	2188,00
1118,91	2179,00
1119,33	2190,00
>>>>>End Processed Spectral Data<<<<<
