SpectraSuite Data File
++++++++++++++++++++++++++++++++++++
Date: Wed May 16 13:35:17 EEST 2012
User: OO Maya
Dark Spectrum Present: No
Reference Spectrum Present: No
Number of Sampled Component Spectra: 1
Spectrometers: MAYP11278
Integration Time (usec): 3000000 (MAYP11278)
Spectra Averaged: 3 (MAYP11278)
Boxcar Smoothing: 0 (MAYP11278)
Correct for Electrical Dark: No (MAYP11278)
Strobe/Lamp Enabled: No (MAYP11278)
Correct for Detector Non-linearity: No (MAYP11278)
Correct for Stray Light: No (MAYP11278)
Number of Pixels in Processed Spectrum: 2068
>>>>>Begin Processed Spectral Data<<<<<
188,05	2270,33
188,53	2196,67
189,01	2168,33
189,49	2170,33
189,96	4184,67
190,44	4310,33
190,92	4196,67
191,40	4259,67
191,88	4401,00
192,36	4247,33
192,83	4189,00
193,31	4108,00
193,79	4273,00
194,27	4258,33
194,75	4382,00
195,23	4217,33
195,70	4399,67
196,18	4206,67
196,66	4263,33
197,14	4756,67
197,62	4282,00
198,09	4183,33
198,57	4213,33
199,05	4186,33
199,53	4348,33
200,01	4413,00
200,48	4253,33
200,96	4255,33
201,44	4435,67
201,92	4418,67
202,39	4420,33
202,87	4154,67
203,35	4369,67
203,83	4203,67
204,31	4452,00
204,78	4531,67
205,26	4217,33
205,74	4219,00
206,22	4562,33
206,69	4210,67
207,17	4368,00
207,65	4794,00
208,13	4351,00
208,60	4433,00
209,08	4303,67
209,56	4479,33
210,04	4405,00
210,51	4324,67
210,99	4313,33
211,47	4385,67
211,94	4350,33
212,42	4229,33
212,90	4659,00
213,38	4447,33
213,85	4241,33
214,33	4628,33
214,81	4421,33
215,29	4592,00
215,76	4417,33
216,24	4478,00
216,72	4458,33
217,19	4420,33
217,67	4297,33
218,15	4319,33
218,62	4594,67
219,10	4156,67
219,58	4270,00
220,05	4277,67
220,53	4371,00
221,01	4586,00
221,49	4328,67
221,96	4516,33
222,44	4274,00
222,92	4492,33
223,39	4306,33
223,87	4492,67
224,35	4378,00
224,82	4289,33
225,30	4244,67
225,78	4364,67
226,25	4284,33
226,73	4405,33
227,21	4535,00
227,68	4362,00
228,16	4455,33
228,63	4486,00
229,11	4469,33
229,59	4364,00
230,06	4316,00
230,54	4327,00
231,02	4503,33
231,49	4524,67
231,97	4441,67
232,45	4425,00
232,92	4230,67
233,40	4405,00
233,87	4406,00
234,35	5004,67
234,83	4423,67
235,30	4311,67
235,78	4275,67
236,25	4203,00
236,73	4540,67
237,21	4761,33
237,68	4319,67
238,16	4432,33
238,63	4473,67
239,11	4425,00
239,59	4369,67
240,06	4217,33
240,54	4524,67
241,01	4584,67
241,49	4426,67
241,96	4373,67
242,44	4536,00
242,92	4584,67
243,39	4212,33
243,87	4274,00
244,34	4550,00
244,82	4653,00
245,29	4378,33
245,77	4611,67
246,24	4541,00
246,72	4294,67
247,20	4367,33
247,67	4401,33
248,15	4448,67
248,62	4475,00
249,10	4148,67
249,57	4409,00
250,05	4522,00
250,52	4450,00
251,00	4642,33
251,47	4377,00
251,95	4758,33
252,42	4635,67
252,90	4287,33
253,37	4600,67
253,85	4432,67
254,32	4360,00
254,80	4448,67
255,27	4475,67
255,75	4543,33
256,22	4314,00
256,70	4480,67
257,17	4541,00
257,65	4561,33
258,12	4950,33
258,60	4456,67
259,07	4324,33
259,55	4418,00
260,02	4513,00
260,50	4738,33
260,97	4383,00
261,45	4336,33
261,92	4637,33
262,40	4301,67
262,87	4468,33
263,35	4398,33
263,82	4212,67
264,30	4524,33
264,77	4592,67
265,25	4349,00
265,72	4437,67
266,19	4471,67
266,67	4573,33
267,14	4348,00
267,62	4412,33
268,09	4471,67
268,57	4462,00
269,04	4148,00
269,51	4284,67
269,99	4319,00
270,46	4512,67
270,94	4592,67
271,41	4379,67
271,89	4404,67
272,36	4215,67
272,83	4254,00
273,31	4145,33
273,78	4412,67
274,26	5123,33
274,73	4530,67
275,20	4557,33
275,68	4316,33
276,15	4397,33
276,63	4486,33
277,10	4538,00
277,57	4240,33
278,05	4361,67
278,52	4219,00
279,00	5186,67
279,47	4312,67
279,94	4307,33
280,42	5137,33
280,89	4586,33
281,36	5066,33
281,84	4371,00
282,31	4625,33
282,78	4391,67
283,26	4385,67
283,73	4545,33
284,21	4286,67
284,68	4245,00
285,15	4567,33
285,63	4427,67
286,10	4453,33
286,57	4460,67
287,05	4227,00
287,52	4485,00
287,99	4697,33
288,47	4369,67
288,94	4555,33
289,41	4155,00
289,89	4652,67
290,36	4293,00
290,83	4515,33
291,30	4369,33
291,78	4526,33
292,25	4808,33
292,72	4318,33
293,20	4582,00
293,67	4358,33
294,14	4531,67
294,62	4482,00
295,09	4293,33
295,56	4449,67
296,03	4491,67
296,51	4741,00
296,98	4697,67
297,45	4576,67
297,93	4513,33
298,40	4505,00
298,87	4349,00
299,34	4689,33
299,82	4416,67
300,29	4502,67
300,76	4373,00
301,23	4582,00
301,71	4590,00
302,18	4602,33
302,65	4293,67
303,12	4554,00
303,60	4618,67
304,07	4319,67
304,54	4361,33
305,01	4294,33
305,49	4451,67
305,96	4482,33
306,43	4502,00
306,90	4558,00
307,38	4357,67
307,85	4356,67
308,32	4469,67
308,79	4366,67
309,27	4604,00
309,74	4602,00
310,21	4531,33
310,68	4481,67
311,15	4533,33
311,63	4354,00
312,10	4617,00
312,57	4445,00
313,04	4803,00
313,51	4364,33
313,99	4391,67
314,46	4496,67
314,93	4345,33
315,40	4362,00
315,87	4635,33
316,34	4564,33
316,82	4496,00
317,29	4564,00
317,76	4503,00
318,23	4979,00
318,70	4428,67
319,17	4448,67
319,65	4294,33
320,12	4516,00
320,59	4751,67
321,06	4604,33
321,53	4408,33
322,00	4206,33
322,48	4294,67
322,95	4747,33
323,42	4405,00
323,89	4845,00
324,36	4270,00
324,83	4518,00
325,30	4408,33
325,78	4396,00
326,25	4400,67
326,72	4359,33
327,19	4539,33
327,66	4553,33
328,13	4542,33
328,60	4474,33
329,07	4425,00
329,54	4398,67
330,02	4395,00
330,49	4345,00
330,96	4586,33
331,43	4547,00
331,90	4762,67
332,37	4357,00
332,84	4820,67
333,31	4565,33
333,78	4508,67
334,25	4692,67
334,72	4482,00
335,20	4556,67
335,67	5144,00
336,14	4332,00
336,61	4451,33
337,08	4428,67
337,55	4495,33
338,02	4413,33
338,49	4424,33
338,96	4720,67
339,43	4612,67
339,90	4296,00
340,37	4330,67
340,84	4322,00
341,31	4561,67
341,78	4643,67
342,25	4388,33
342,72	4507,00
343,19	4575,33
343,67	4528,00
344,14	4404,67
344,61	4495,67
345,08	4332,33
345,55	4456,33
346,02	4551,67
346,49	4411,00
346,96	4337,00
347,43	4764,67
347,90	4386,33
348,37	4688,67
348,84	4510,00
349,31	4292,00
349,78	4485,67
350,25	4621,33
350,72	4495,33
351,19	4352,00
351,66	4557,67
352,13	4809,33
352,60	4503,67
353,07	4431,33
353,54	4530,33
354,01	4608,33
354,48	4580,67
354,94	4557,67
355,41	4507,67
355,88	4751,67
356,35	4404,67
356,82	4712,67
357,29	4381,33
357,76	4896,33
358,23	4617,33
358,70	4259,00
359,17	4341,33
359,64	4381,33
360,11	4373,33
360,58	4636,33
361,05	4740,00
361,52	4420,67
361,99	4455,67
362,46	4487,33
362,93	4444,33
363,39	4480,00
363,86	4889,33
364,33	4591,00
364,80	4355,33
365,27	4563,33
365,74	4384,00
366,21	4289,67
366,68	4519,33
367,15	4455,67
367,62	4486,33
368,09	4256,33
368,55	4288,67
369,02	4634,67
369,49	4304,33
369,96	4647,33
370,43	4511,67
370,90	4395,67
371,37	4418,33
371,84	4555,00
372,31	4377,67
372,77	4243,33
373,24	4426,67
373,71	4475,33
374,18	4260,67
374,65	4358,33
375,12	4512,33
375,59	4228,67
376,05	4650,33
376,52	4409,33
376,99	4327,67
377,46	4321,00
377,93	4512,67
378,40	4502,67
378,86	4490,67
379,33	4438,33
379,80	4455,00
380,27	4607,67
380,74	4740,33
381,21	4474,00
381,67	4723,33
382,14	4724,00
382,61	4297,67
383,08	4500,67
383,55	4423,67
384,02	4652,33
384,48	4512,00
384,95	5476,33
385,42	4483,33
385,89	4370,67
386,36	4467,00
386,82	4789,67
387,29	4339,67
387,76	4291,33
388,23	4659,67
388,69	4536,00
389,16	4723,00
389,63	4337,67
390,10	4565,67
390,57	4485,33
391,03	4529,00
391,50	4542,67
391,97	4517,33
392,44	4562,33
392,90	4441,67
393,37	4447,67
393,84	4942,33
394,31	4468,00
394,77	4650,67
395,24	4336,33
395,71	4571,33
396,18	5396,33
396,64	4305,67
397,11	4563,33
397,58	4637,67
398,05	4324,00
398,51	4494,33
398,98	4385,00
399,45	4324,33
399,92	4679,67
400,38	4319,33
400,85	4471,67
401,32	4419,67
401,78	4593,67
402,25	4550,33
402,72	4493,67
403,18	4352,00
403,65	4761,33
404,12	4453,33
404,59	4701,33
405,05	4814,33
405,52	4663,67
405,99	4353,67
406,45	4636,00
406,92	4566,00
407,39	4809,67
407,85	4483,33
408,32	4522,33
408,79	4560,33
409,25	4326,00
409,72	4708,00
410,19	4315,00
410,65	4703,00
411,12	4366,33
411,59	4707,67
412,05	4342,00
412,52	4247,67
412,99	4586,33
413,45	4433,00
413,92	4614,33
414,39	4580,67
414,85	4797,00
415,32	4443,33
415,78	4788,67
416,25	4549,33
416,72	4488,67
417,18	4848,00
417,65	4552,00
418,12	4476,00
418,58	4554,33
419,05	4512,67
419,51	4630,00
419,98	4378,67
420,45	4658,67
420,91	4321,33
421,38	4459,67
421,84	4406,00
422,31	4567,67
422,78	4434,67
423,24	4484,67
423,71	4575,00
424,17	4603,33
424,64	4432,00
425,11	4626,67
425,57	4493,00
426,04	4675,00
426,50	4437,33
426,97	4720,33
427,43	4615,67
427,90	4631,33
428,37	4316,67
428,83	4674,00
429,30	4548,00
429,76	4500,33
430,23	4525,00
430,69	5111,67
431,16	4291,33
431,62	4439,33
432,09	4781,33
432,55	4653,00
433,02	4466,67
433,48	4392,33
433,95	4502,33
434,42	4447,33
434,88	4597,00
435,35	4359,00
435,81	4621,00
436,28	4477,67
436,74	4271,67
437,21	4613,67
437,67	4549,00
438,14	4509,00
438,60	4414,00
439,07	4461,33
439,53	5328,67
440,00	4539,00
440,46	4632,00
440,93	4718,33
441,39	4343,67
441,86	4436,33
442,32	4938,67
442,79	4331,67
443,25	4532,33
443,72	4532,00
444,18	4300,00
444,64	4803,67
445,11	4574,33
445,57	4518,33
446,04	4501,00
446,50	4530,67
446,97	4467,00
447,43	4491,33
447,90	4390,67
448,36	4375,67
448,83	4589,00
449,29	4571,67
449,75	4461,33
450,22	4378,00
450,68	4345,00
451,15	4395,67
451,61	4494,00
452,08	4629,67
452,54	4343,00
453,00	4663,33
453,47	4475,33
453,93	4423,67
454,40	4492,67
454,86	4585,00
455,32	4419,00
455,79	4488,67
456,25	4630,33
456,72	4375,33
457,18	4689,67
457,64	4438,67
458,11	4439,00
458,57	4290,67
459,04	4503,33
459,50	4483,67
459,96	4516,33
460,43	4392,67
460,89	4320,00
461,36	4716,33
461,82	4628,00
462,28	4366,67
462,75	4251,00
463,21	4655,00
463,67	4406,67
464,14	4487,33
464,60	4483,33
465,06	4302,00
465,53	4381,00
465,99	4606,00
466,45	4444,33
466,92	4506,00
467,38	4566,33
467,84	4410,00
468,31	4465,00
468,77	4498,33
469,23	4433,33
469,70	4292,00
470,16	4495,33
470,62	4458,00
471,09	4343,33
471,55	4355,67
472,01	4306,00
472,48	4371,33
472,94	4365,00
473,40	4668,00
473,87	4382,67
474,33	4300,33
474,79	4418,67
475,25	4253,00
475,72	4467,67
476,18	4399,67
476,64	4465,00
477,11	4369,00
477,57	4409,67
478,03	4715,33
478,49	4416,67
478,96	4602,00
479,42	4294,67
479,88	4699,33
480,35	4512,67
480,81	4366,00
481,27	4279,00
481,73	4345,33
482,20	4406,33
482,66	4234,33
483,12	4349,00
483,58	4157,33
484,05	4320,67
484,51	4676,00
484,97	4447,00
485,43	4381,67
485,89	4108,00
486,36	4350,33
486,82	4153,67
487,28	4432,33
487,74	4202,00
488,21	4148,67
488,67	4249,67
489,13	4403,67
489,59	4360,00
490,05	4535,00
490,52	4191,33
490,98	4377,67
491,44	4191,67
491,90	4218,00
492,36	4098,33
492,83	4525,00
493,29	4382,00
493,75	4388,33
494,21	4210,00
494,67	4257,67
495,14	4275,33
495,60	4193,67
496,06	4415,00
496,52	4246,00
496,98	4292,67
497,44	4661,67
497,91	4525,33
498,37	4256,00
498,83	4368,33
499,29	4272,00
499,75	4780,67
500,21	4341,67
500,67	4214,00
501,14	4336,67
501,60	4262,00
502,06	4466,67
502,52	4331,67
502,98	4293,67
503,44	4321,67
503,90	4419,00
504,37	4255,33
504,83	4400,33
505,29	4396,33
505,75	4219,67
506,21	4305,33
506,67	4465,33
507,13	4320,33
507,59	4454,67
508,05	4418,67
508,51	4246,33
508,98	4215,67
509,44	4097,33
509,90	4293,67
510,36	4298,67
510,82	4197,67
511,28	4543,33
511,74	4570,67
512,20	4202,67
512,66	4096,67
513,12	4178,67
513,58	4415,33
514,04	4044,00
514,51	4511,33
514,97	4624,33
515,43	4093,67
515,89	4322,67
516,35	4506,67
516,81	4474,67
517,27	4841,33
517,73	4414,33
518,19	4349,67
518,65	5008,67
519,11	4270,67
519,57	4251,67
520,03	4143,00
520,49	4199,67
520,95	4390,67
521,41	4404,00
521,87	4472,00
522,33	4321,67
522,79	4147,67
523,25	4687,00
523,71	4464,67
524,17	4291,33
524,63	4635,33
525,09	4407,33
525,55	4440,67
526,01	4546,67
526,47	4368,33
526,93	4319,33
527,39	4290,67
527,85	4296,67
528,31	4468,67
528,77	4450,67
529,23	4283,33
529,69	4164,33
530,15	4446,67
530,61	4430,00
531,07	4142,67
531,53	4499,33
531,99	4352,67
532,45	4310,67
532,91	4313,67
533,37	4418,67
533,83	4314,00
534,29	4170,33
534,75	4335,00
535,21	4250,67
535,67	4358,67
536,12	4248,33
536,58	4393,00
537,04	4156,00
537,50	4441,67
537,96	4321,33
538,42	4333,67
538,88	4624,00
539,34	4437,00
539,80	5374,67
540,26	4087,33
540,72	4633,00
541,18	4391,33
541,63	4163,33
542,09	4419,67
542,55	4408,00
543,01	4255,67
543,47	4834,67
543,93	4148,67
544,39	4714,00
544,85	4466,33
545,31	4287,33
545,76	4270,33
546,22	4480,00
546,68	4351,33
547,14	4411,67
547,60	4453,00
548,06	4374,33
548,52	4269,33
548,98	4255,00
549,43	4184,00
549,89	4726,33
550,35	4265,00
550,81	4141,33
551,27	4388,00
551,73	4358,00
552,19	4671,67
552,64	4369,33
553,10	4224,00
553,56	4403,00
554,02	4262,67
554,48	4158,67
554,93	4391,33
555,39	4317,33
555,85	4669,33
556,31	4378,33
556,77	4566,33
557,23	4098,33
557,68	4376,33
558,14	4742,33
558,60	4259,33
559,06	4326,67
559,52	4219,67
559,97	4191,00
560,43	4192,33
560,89	4357,33
561,35	4301,33
561,81	4357,33
562,26	4239,67
562,72	4201,33
563,18	4341,67
563,64	4556,67
564,09	4181,33
564,55	4347,33
565,01	4270,33
565,47	4252,67
565,92	4345,00
566,38	4540,00
566,84	4323,67
567,30	4212,33
567,75	4348,33
568,21	4500,33
568,67	4244,33
569,13	4328,00
569,58	4462,67
570,04	4343,00
570,50	4326,00
570,96	4460,00
571,41	4436,67
571,87	4309,00
572,33	4348,00
572,78	4389,33
573,24	4233,67
573,70	4263,00
574,16	4315,00
574,61	4600,00
575,07	4448,33
575,53	4195,00
575,98	4371,67
576,44	4039,67
576,90	4525,00
577,36	4265,67
577,81	4265,67
578,27	4148,67
578,73	4584,33
579,18	4331,33
579,64	4214,00
580,10	4395,33
580,55	4374,33
581,01	4344,33
581,47	4303,67
581,92	4387,00
582,38	4314,67
582,84	4152,00
583,29	4352,67
583,75	4393,00
584,21	4272,33
584,66	4482,33
585,12	4236,00
585,57	4833,00
586,03	4323,00
586,49	4295,33
586,94	4291,67
587,40	4338,33
587,86	4484,00
588,31	4174,00
588,77	4426,67
589,22	4302,67
589,68	4207,67
590,14	4398,33
590,59	4456,00
591,05	4266,33
591,51	4103,67
591,96	4559,33
592,42	4285,33
592,87	4396,33
593,33	4340,67
593,78	4483,33
594,24	4337,00
594,70	4299,00
595,15	4580,33
595,61	4289,33
596,06	4197,33
596,52	4622,67
596,98	4441,33
597,43	4571,00
597,89	4350,33
598,34	4149,67
598,80	4333,00
599,25	4569,67
599,71	4248,00
600,16	4436,00
600,62	4575,33
601,08	4381,33
601,53	4484,67
601,99	4108,00
602,44	4925,00
602,90	4244,33
603,35	4354,00
603,81	4116,00
604,26	4092,67
604,72	4427,00
605,17	4299,00
605,63	4435,33
606,08	4361,00
606,54	4101,33
606,99	4358,67
607,45	4286,67
607,90	4332,00
608,36	4435,00
608,81	4334,67
609,27	4783,67
609,72	4484,33
610,18	4346,33
610,63	4252,00
611,09	4372,00
611,54	4132,33
612,00	4674,67
612,45	4447,00
612,91	4390,67
613,36	5001,67
613,82	4154,67
614,27	4119,67
614,73	4157,00
615,18	4136,00
615,64	4307,00
616,09	4321,67
616,54	4189,00
617,00	4326,00
617,45	4315,67
617,91	4475,00
618,36	4182,33
618,82	4264,00
619,27	4267,33
619,72	4488,67
620,18	4274,00
620,63	4483,33
621,09	4553,33
621,54	4315,00
622,00	4502,67
622,45	4578,33
622,90	4478,00
623,36	4241,00
623,81	4206,67
624,27	4517,00
624,72	4103,67
625,17	4278,33
625,63	4362,00
626,08	4219,67
626,54	4313,33
626,99	4359,33
627,44	4194,00
627,90	4482,00
628,35	4498,67
628,81	4065,67
629,26	4288,00
629,71	4328,33
630,17	4220,67
630,62	4407,00
631,07	4315,00
631,53	4460,33
631,98	4398,33
632,43	4529,33
632,89	4232,33
633,34	4237,00
633,79	4186,67
634,25	4238,67
634,70	4163,33
635,15	4262,67
635,61	4195,00
636,06	4135,33
636,51	4290,00
636,97	4308,33
637,42	4198,00
637,87	4423,33
638,33	4512,00
638,78	4250,67
639,23	4307,33
639,69	4148,33
640,14	4095,67
640,59	4370,67
641,05	4503,00
641,50	4095,33
641,95	4283,00
642,40	4258,67
642,86	4102,33
643,31	4214,33
643,76	4417,33
644,22	4218,33
644,67	4145,67
645,12	4258,67
645,57	4206,00
646,03	4337,67
646,48	4320,67
646,93	4359,33
647,38	4440,00
647,84	4355,00
648,29	4386,00
648,74	4149,67
649,19	4537,67
649,65	4402,33
650,10	5126,67
650,55	4184,33
651,00	4183,33
651,46	4201,67
651,91	4331,33
652,36	4155,33
652,81	4278,67
653,27	4248,00
653,72	4192,33
654,17	4297,67
654,62	4342,00
655,07	4225,00
655,53	4171,00
655,98	4463,33
656,43	4197,00
656,88	4290,67
657,33	4389,00
657,79	4411,33
658,24	4196,67
658,69	4337,67
659,14	4172,67
659,59	5191,00
660,05	4234,00
660,50	4483,67
660,95	4270,67
661,40	4175,67
661,85	4296,00
662,30	4161,33
662,76	4073,67
663,21	4395,67
663,66	4219,00
664,11	4210,67
664,56	4282,67
665,01	4103,00
665,47	4329,67
665,92	4136,00
666,37	4372,00
666,82	4303,67
667,27	4839,33
667,72	4574,33
668,17	4165,67
668,62	4337,33
669,08	4168,67
669,53	4767,67
669,98	4054,33
670,43	4133,67
670,88	4533,00
671,33	4314,00
671,78	4650,33
672,23	4815,67
672,69	4290,00
673,14	4320,00
673,59	4526,00
674,04	4951,33
674,49	4372,67
674,94	4360,00
675,39	4074,67
675,84	4102,67
676,29	4287,33
676,74	4268,00
677,19	4253,67
677,64	4236,67
678,10	4837,67
678,55	4201,00
679,00	4260,00
679,45	4338,67
679,90	4223,67
680,35	4343,67
680,80	4278,67
681,25	3979,00
681,70	4018,67
682,15	4246,67
682,60	4291,67
683,05	4411,67
683,50	4379,67
683,95	4335,00
684,40	4553,33
684,85	4421,33
685,30	4295,33
685,75	4352,00
686,20	4274,00
686,65	4146,00
687,10	4314,33
687,55	4190,33
688,00	4307,33
688,45	4291,67
688,90	4866,33
689,35	4430,33
689,80	4087,67
690,25	4283,00
690,70	4234,33
691,15	4080,00
691,60	4269,00
692,05	4073,67
692,50	4313,33
692,95	4235,33
693,40	4426,33
693,85	4360,33
694,30	4294,67
694,75	4316,00
695,20	5225,67
695,65	4299,00
696,10	4335,00
696,55	4664,67
697,00	4302,33
697,45	4199,00
697,90	4378,00
698,35	4170,67
698,80	4453,00
699,24	4445,67
699,69	4188,00
700,14	4252,00
700,59	4422,33
701,04	4433,00
701,49	5134,67
701,94	4099,00
702,39	4579,33
702,84	4226,00
703,29	4211,33
703,74	4367,00
704,19	4254,00
704,63	4225,67
705,08	4536,00
705,53	4497,67
705,98	4485,00
706,43	4123,33
706,88	4438,67
707,33	4312,33
707,78	4292,00
708,22	4358,00
708,67	4449,67
709,12	4326,33
709,57	4225,00
710,02	4299,33
710,47	4269,00
710,92	4191,33
711,37	4432,67
711,81	4322,00
712,26	4313,33
712,71	4164,33
713,16	4711,67
713,61	4288,33
714,06	4346,33
714,50	4578,00
714,95	4478,33
715,40	4244,00
715,85	4331,67
716,30	4230,33
716,75	4214,67
717,19	4145,33
717,64	4095,67
718,09	4373,33
718,54	4663,67
718,99	4133,33
719,43	4120,67
719,88	4319,33
720,33	4284,33
720,78	4219,00
721,23	4358,00
721,67	4203,67
722,12	4378,00
722,57	4268,33
723,02	4120,33
723,47	4038,67
723,91	4288,00
724,36	4047,00
724,81	4394,33
725,26	4091,33
725,70	4272,33
726,15	4257,00
726,60	4323,00
727,05	4659,33
727,49	4163,00
727,94	4571,67
728,39	4361,67
728,84	4238,00
729,28	4522,33
729,73	4197,00
730,18	4442,67
730,63	4117,67
731,07	4321,67
731,52	4420,00
731,97	4349,00
732,41	4321,67
732,86	4172,33
733,31	4438,00
733,76	4348,00
734,20	4179,33
734,65	4394,33
735,10	4405,67
735,54	4318,33
735,99	4929,00
736,44	4180,33
736,89	4331,33
737,33	4416,67
737,78	4442,67
738,23	4327,33
738,67	4238,00
739,12	4336,67
739,57	4084,33
740,01	4505,00
740,46	4353,33
740,91	4153,33
741,35	4378,33
741,80	4414,67
742,25	4309,33
742,69	4327,67
743,14	4165,33
743,59	4188,00
744,03	4269,67
744,48	4492,67
744,92	4461,00
745,37	4311,67
745,82	4452,33
746,26	4598,67
746,71	3987,67
747,16	4186,67
747,60	4065,67
748,05	4392,00
748,49	4266,00
748,94	4191,00
749,39	4357,67
749,83	4903,67
750,28	4326,33
750,73	4258,33
751,17	4128,00
751,62	4263,67
752,06	4232,67
752,51	4276,00
752,95	4700,00
753,40	4187,33
753,85	4260,33
754,29	4072,33
754,74	4223,33
755,18	4144,00
755,63	4265,00
756,07	4316,67
756,52	4497,00
756,97	4234,00
757,41	4556,33
757,86	4322,67
758,30	4263,33
758,75	4264,33
759,19	4221,00
759,64	4116,33
760,08	4245,67
760,53	4353,00
760,98	4289,33
761,42	4373,00
761,87	4539,67
762,31	4236,00
762,76	4099,67
763,20	4227,67
763,65	4431,00
764,09	4258,00
764,54	4114,00
764,98	4198,67
765,43	4379,33
765,87	4162,33
766,32	4090,00
766,76	4173,67
767,21	4294,33
767,65	4320,00
768,10	4360,33
768,54	4420,00
768,99	4269,33
769,43	4670,00
769,88	4146,00
770,32	4263,33
770,77	4210,00
771,21	4102,00
771,65	4392,67
772,10	4302,00
772,54	4366,00
772,99	4115,33
773,43	4234,00
773,88	4248,67
774,32	4014,00
774,77	4280,67
775,21	4164,67
775,65	4347,00
776,10	4270,67
776,54	4117,00
776,99	4261,00
777,43	4218,00
777,88	4378,67
778,32	4401,00
778,76	4217,00
779,21	4296,67
779,65	4913,67
780,10	4568,00
780,54	4286,33
780,99	4461,67
781,43	4359,67
781,87	4186,33
782,32	4330,00
782,76	4142,33
783,20	4237,67
783,65	4418,67
784,09	4452,33
784,54	4304,67
784,98	4232,00
785,42	4268,67
785,87	4169,33
786,31	4430,67
786,75	4446,67
787,20	4525,00
787,64	4104,67
788,09	4214,00
788,53	4331,67
788,97	4159,67
789,42	4261,00
789,86	4182,33
790,30	4273,00
790,75	4144,33
791,19	4176,33
791,63	4509,00
792,08	4217,00
792,52	4288,00
792,96	4195,00
793,41	5154,33
793,85	4476,33
794,29	4336,33
794,74	4331,00
795,18	4266,33
795,62	4140,33
796,06	4391,33
796,51	4265,67
796,95	4305,00
797,39	4191,33
797,84	4132,00
798,28	4264,33
798,72	4517,33
799,16	4354,67
799,61	4184,00
800,05	4602,67
800,49	4348,33
800,94	4159,33
801,38	4343,67
801,82	4330,67
802,26	4202,00
802,71	4495,67
803,15	4638,00
803,59	4451,67
804,03	4344,00
804,48	4278,67
804,92	4203,67
805,36	4623,33
805,80	4728,33
806,25	4621,33
806,69	4457,33
807,13	4717,00
807,57	4245,33
808,01	4314,00
808,46	4135,67
808,90	4390,33
809,34	4313,33
809,78	4233,67
810,23	4152,33
810,67	4396,00
811,11	4585,67
811,55	5014,67
811,99	4281,33
812,44	4195,67
812,88	4431,67
813,32	4685,33
813,76	4460,67
814,20	4336,67
814,64	4463,67
815,09	4396,00
815,53	4347,67
815,97	4193,00
816,41	4191,00
816,85	4198,33
817,29	4422,33
817,74	4285,67
818,18	4487,33
818,62	4227,67
819,06	4388,00
819,50	4543,67
819,94	4254,33
820,39	4359,33
820,83	4273,67
821,27	4316,33
821,71	4152,00
822,15	4604,33
822,59	4173,00
823,03	4344,33
823,47	4364,33
823,92	4143,33
824,36	4338,67
824,80	4274,33
825,24	4372,67
825,68	4342,67
826,12	4186,67
826,56	4268,67
827,00	4001,00
827,44	4283,00
827,88	4465,33
828,33	4506,00
828,77	4195,67
829,21	4463,33
829,65	4357,00
830,09	4197,67
830,53	4626,67
830,97	4243,00
831,41	4770,67
831,85	4511,67
832,29	4428,33
832,73	4102,00
833,17	4284,33
833,61	4267,33
834,05	4478,33
834,49	4448,00
834,93	4287,33
835,37	4246,00
835,82	4494,00
836,26	4293,67
836,70	4352,67
837,14	4266,00
837,58	4464,33
838,02	4191,33
838,46	4170,00
838,90	4330,00
839,34	4294,00
839,78	4641,33
840,22	4750,00
840,66	4345,67
841,10	4533,67
841,54	4063,67
841,98	4188,33
842,42	4116,33
842,86	4228,33
843,30	4424,33
843,74	4313,00
844,18	4434,33
844,62	4283,00
845,06	4157,00
845,50	4387,67
845,94	4291,67
846,37	4432,00
846,81	4219,33
847,25	4178,33
847,69	4318,67
848,13	4176,67
848,57	4254,67
849,01	4242,67
849,45	4411,67
849,89	4544,33
850,33	4412,33
850,77	4282,33
851,21	4457,67
851,65	4190,33
852,09	4366,67
852,53	4523,67
852,97	4236,67
853,40	4208,33
853,84	4444,67
854,28	4094,33
854,72	4491,33
855,16	4066,33
855,60	4175,00
856,04	4515,67
856,48	4575,00
856,92	4309,67
857,36	4376,00
857,79	4314,33
858,23	4148,00
858,67	4552,33
859,11	4048,33
859,55	4199,00
859,99	4213,00
860,43	4257,00
860,87	4323,67
861,30	4434,00
861,74	4214,33
862,18	4238,33
862,62	4386,00
863,06	4196,67
863,50	4206,67
863,94	4453,00
864,37	4186,33
864,81	4290,67
865,25	4288,00
865,69	4105,00
866,13	4285,00
866,57	4039,00
867,00	4411,67
867,44	4138,67
867,88	4352,00
868,32	4241,33
868,76	4167,00
869,19	4357,67
869,63	4272,67
870,07	4581,33
870,51	4828,00
870,95	4115,00
871,38	4288,67
871,82	4305,67
872,26	4193,33
872,70	4345,00
873,14	4394,67
873,57	4282,67
874,01	4477,67
874,45	4447,00
874,89	4256,33
875,32	4131,00
875,76	4523,33
876,20	4023,00
876,64	4352,33
877,07	4237,33
877,51	4319,33
877,95	4288,67
878,39	4278,67
878,82	4340,33
879,26	4272,00
879,70	4630,00
880,14	4162,00
880,57	4145,33
881,01	4236,67
881,45	4314,67
881,89	4427,67
882,32	4256,33
882,76	4275,33
883,20	4245,00
883,63	4276,33
884,07	4120,67
884,51	4414,33
884,94	4285,00
885,38	4426,00
885,82	4439,33
886,26	4242,67
886,69	4176,67
887,13	4645,67
887,57	4134,00
888,00	4163,33
888,44	4253,33
888,88	4217,67
889,31	4901,33
889,75	4102,00
890,19	4432,33
890,62	4209,00
891,06	4412,67
891,50	4347,67
891,93	4098,33
892,37	4162,67
892,81	4241,67
893,24	4129,00
893,68	4233,67
894,11	4346,33
894,55	4238,00
894,99	4406,33
895,42	4226,00
895,86	4193,67
896,30	4320,33
896,73	4394,33
897,17	4165,00
897,60	4146,00
898,04	4176,67
898,48	4306,33
898,91	4515,67
899,35	4158,00
899,78	4181,67
900,22	4220,33
900,66	4425,33
901,09	4368,33
901,53	4188,00
901,96	4645,67
902,40	4693,00
902,84	4175,33
903,27	4235,00
903,71	4598,00
904,14	4127,00
904,58	4345,33
905,01	4206,00
905,45	4242,33
905,88	4135,00
906,32	4517,67
906,76	4304,33
907,19	4467,00
907,63	4329,67
908,06	4228,67
908,50	4396,33
908,93	4568,00
909,37	4293,33
909,80	4071,67
910,24	4351,67
910,67	4296,67
911,11	4250,33
911,54	4213,00
911,98	4219,00
912,41	4318,33
912,85	4246,00
913,28	4396,33
913,72	4357,33
914,15	4254,00
914,59	4111,67
915,02	4114,33
915,46	4231,67
915,89	4169,33
916,33	4445,67
916,76	4183,67
917,20	4512,00
917,63	4221,00
918,07	4454,67
918,50	4148,33
918,94	4290,00
919,37	4269,00
919,81	4399,33
920,24	4407,33
920,67	4280,00
921,11	4611,33
921,54	4371,67
921,98	4182,67
922,41	4107,33
922,85	4094,67
923,28	4343,00
923,72	4591,67
924,15	4400,33
924,58	4083,67
925,02	4411,00
925,45	4101,00
925,89	4412,00
926,32	4713,33
926,75	4243,33
927,19	4401,00
927,62	4114,00
928,06	4729,00
928,49	4274,67
928,92	4093,00
929,36	4472,00
929,79	4249,33
930,23	4389,67
930,66	4423,67
931,09	4210,67
931,53	4371,00
931,96	4041,33
932,39	4641,67
932,83	4457,33
933,26	4826,00
933,70	4247,67
934,13	4485,33
934,56	4436,00
935,00	4423,67
935,43	4367,00
935,86	4112,00
936,30	4263,00
936,73	4181,67
937,16	4370,00
937,60	4135,33
938,03	4406,67
938,46	4207,00
938,90	4226,67
939,33	4390,33
939,76	4140,33
940,19	4283,33
940,63	4452,67
941,06	4732,33
941,49	4230,33
941,93	4458,00
942,36	4158,33
942,79	4220,00
943,23	4449,67
943,66	4101,00
944,09	4104,00
944,52	4420,00
944,96	4244,67
945,39	4400,00
945,82	4307,00
946,26	4296,00
946,69	4339,00
947,12	4533,33
947,55	4241,00
947,99	4275,33
948,42	4394,00
948,85	4115,00
949,28	4102,33
949,72	4106,67
950,15	4784,67
950,58	4525,33
951,01	4251,67
951,45	4204,33
951,88	4378,67
952,31	4099,00
952,74	4450,33
953,17	4218,67
953,61	4672,33
954,04	4098,00
954,47	4175,33
954,90	4200,33
955,33	4192,33
955,77	4242,67
956,20	4375,00
956,63	4145,00
957,06	4407,00
957,49	4918,33
957,93	4120,33
958,36	4379,33
958,79	4289,67
959,22	4199,67
959,65	4165,67
960,08	4185,33
960,52	3998,67
960,95	4239,67
961,38	4399,00
961,81	4395,67
962,24	4456,67
962,67	4419,67
963,11	4176,67
963,54	4333,00
963,97	4200,67
964,40	4287,00
964,83	4230,33
965,26	4186,33
965,69	4387,33
966,13	4214,67
966,56	4257,33
966,99	4414,33
967,42	4163,33
967,85	4176,00
968,28	4506,67
968,71	5168,33
969,14	4415,67
969,57	4269,67
970,01	4380,00
970,44	4153,67
970,87	4165,67
971,30	4373,67
971,73	4195,00
972,16	4276,33
972,59	4085,00
973,02	4163,00
973,45	4271,00
973,88	4394,67
974,31	4256,00
974,74	4409,33
975,17	4321,00
975,61	4189,33
976,04	4167,33
976,47	4141,33
976,90	4305,33
977,33	4156,67
977,76	4410,33
978,19	4319,67
978,62	4199,33
979,05	4214,00
979,48	4228,67
979,91	4412,00
980,34	4396,33
980,77	4172,33
981,20	4343,33
981,63	4465,67
982,06	4269,67
982,49	4239,00
982,92	4204,00
983,35	4257,33
983,78	4152,00
984,21	4468,00
984,64	4401,67
985,07	4125,33
985,50	3995,67
985,93	4249,00
986,36	4373,00
986,79	4223,33
987,22	4151,00
987,65	4378,33
988,08	4286,33
988,51	4301,33
988,94	4278,00
989,37	4330,33
989,80	4268,00
990,23	4248,67
990,66	4322,00
991,09	4267,00
991,51	4325,33
991,94	4605,00
992,37	4227,67
992,80	4172,67
993,23	4266,33
993,66	4180,00
994,09	4216,33
994,52	4404,67
994,95	4408,33
995,38	4310,33
995,81	4259,33
996,24	4077,33
996,67	4112,00
997,09	3976,33
997,52	4508,33
997,95	4441,00
998,38	4195,00
998,81	4344,33
999,24	4128,67
999,67	4582,00
1000,10	4276,33
1000,53	4296,67
1000,95	4537,67
1001,38	4124,00
1001,81	4304,67
1002,24	4415,33
1002,67	4263,00
1003,10	4328,33
1003,53	4293,33
1003,95	4404,00
1004,38	4157,00
1004,81	4341,33
1005,24	4321,00
1005,67	4527,00
1006,10	4281,00
1006,52	4074,67
1006,95	4377,33
1007,38	4246,00
1007,81	4134,33
1008,24	4057,33
1008,67	4224,33
1009,09	4163,67
1009,52	5015,00
1009,95	4455,67
1010,38	4469,33
1010,81	4371,33
1011,23	4373,33
1011,66	4462,00
1012,09	4224,00
1012,52	4418,67
1012,95	4281,00
1013,37	4342,33
1013,80	4396,33
1014,23	4135,67
1014,66	4564,67
1015,08	4050,33
1015,51	4426,33
1015,94	4168,67
1016,37	4301,67
1016,80	4122,33
1017,22	4344,33
1017,65	4212,33
1018,08	4242,67
1018,51	4274,67
1018,93	4030,67
1019,36	4877,67
1019,79	4493,33
1020,21	4390,33
1020,64	4242,33
1021,07	4276,00
1021,50	4333,00
1021,92	4349,00
1022,35	4358,33
1022,78	4278,33
1023,21	4994,67
1023,63	4505,33
1024,06	4469,67
1024,49	4401,67
1024,91	4320,33
1025,34	4330,67
1025,77	4381,67
1026,19	4138,67
1026,62	4163,67
1027,05	4736,67
1027,47	4418,00
1027,90	4363,33
1028,33	4301,67
1028,75	4391,33
1029,18	4202,00
1029,61	4713,33
1030,03	4303,00
1030,46	4275,00
1030,89	4349,00
1031,31	4596,67
1031,74	4112,00
1032,17	4330,00
1032,59	4420,00
1033,02	4255,33
1033,45	4490,33
1033,87	4172,33
1034,30	4146,00
1034,73	4353,00
1035,15	4433,33
1035,58	4193,33
1036,00	4620,67
1036,43	4181,67
1036,86	4210,67
1037,28	4328,67
1037,71	4080,67
1038,13	4423,00
1038,56	4470,00
1038,99	4402,00
1039,41	4488,67
1039,84	4570,00
1040,26	4248,00
1040,69	4278,00
1041,11	4326,00
1041,54	4247,33
1041,97	4543,67
1042,39	4542,00
1042,82	4429,00
1043,24	4461,33
1043,67	4281,67
1044,09	4424,00
1044,52	4184,67
1044,95	4272,33
1045,37	4245,00
1045,80	4146,00
1046,22	4322,33
1046,65	4386,67
1047,07	4172,00
1047,50	4375,00
1047,92	4512,67
1048,35	4131,67
1048,77	4469,00
1049,20	4396,33
1049,62	4453,33
1050,05	4261,33
1050,47	4270,33
1050,90	4377,33
1051,32	4420,67
1051,75	4523,33
1052,17	4533,33
1052,60	4313,67
1053,02	4388,67
1053,45	4007,67
1053,87	4322,33
1054,30	4045,33
1054,72	4263,33
1055,15	4191,67
1055,57	4383,33
1056,00	4386,33
1056,42	4658,33
1056,85	4509,67
1057,27	4515,00
1057,70	4324,67
1058,12	5145,00
1058,54	4155,00
1058,97	4385,33
1059,39	4452,67
1059,82	4289,00
1060,24	4284,67
1060,67	4222,67
1061,09	4459,67
1061,51	4297,00
1061,94	4237,33
1062,36	4420,00
1062,79	4592,00
1063,21	4325,33
1063,64	4283,00
1064,06	4190,00
1064,48	4437,00
1064,91	4475,00
1065,33	4271,00
1065,76	4148,67
1066,18	4114,33
1066,60	4499,67
1067,03	4345,67
1067,45	4283,67
1067,87	4353,00
1068,30	4256,33
1068,72	4603,00
1069,15	4269,33
1069,57	4212,00
1069,99	4093,33
1070,42	4466,67
1070,84	4497,33
1071,26	4473,67
1071,69	4213,00
1072,11	4428,67
1072,53	4242,00
1072,96	4158,00
1073,38	4117,00
1073,80	4371,00
1074,23	4223,00
1074,65	4103,33
1075,07	4217,67
1075,50	4270,33
1075,92	4316,00
1076,34	4203,33
1076,77	4144,67
1077,19	4259,33
1077,61	4457,00
1078,04	4222,33
1078,46	4407,00
1078,88	4608,33
1079,30	4012,00
1079,73	4341,00
1080,15	4201,00
1080,57	4302,00
1081,00	4340,67
1081,42	4273,67
1081,84	4223,33
1082,26	4373,00
1082,69	4282,67
1083,11	4263,00
1083,53	4311,33
1083,95	4337,67
1084,38	4471,33
1084,80	4317,33
1085,22	4230,33
1085,64	4511,33
1086,07	4171,33
1086,49	4249,67
1086,91	4370,00
1087,33	4088,33
1087,76	4382,67
1088,18	9491,67
1088,60	4321,33
1089,02	4203,33
1089,45	4250,67
1089,87	4218,00
1090,29	4506,00
1090,71	4296,33
1091,13	4165,33
1091,56	4234,33
1091,98	4269,33
1092,40	4156,33
1092,82	4256,33
1093,24	4224,67
1093,66	4282,33
1094,09	4277,67
1094,51	4279,00
1094,93	4245,00
1095,35	4311,33
1095,77	4158,67
1096,19	4243,67
1096,62	4380,33
1097,04	4105,00
1097,46	4292,67
1097,88	4230,67
1098,30	4415,33
1098,72	4337,33
1099,15	4357,00
1099,57	4254,00
1099,99	4207,67
1100,41	4169,67
1100,83	4257,67
1101,25	4197,00
1101,67	4292,00
1102,09	4132,67
1102,52	4224,00
1102,94	4255,33
1103,36	4253,33
1103,78	4312,33
1104,20	4170,67
1104,62	4556,33
1105,04	3976,67
1105,46	4299,00
1105,88	4242,33
1106,30	4183,00
1106,73	4222,33
1107,15	3952,00
1107,57	4045,00
1107,99	4425,67
1108,41	4038,33
1108,83	4316,00
1109,25	4308,00
1109,67	4301,33
1110,09	3975,67
1110,51	4189,33
1110,93	4009,00
1111,35	4140,00
1111,77	4020,33
1112,19	4062,67
1112,61	3992,67
1113,03	4116,00
1113,45	4079,33
1113,87	4079,67
1114,29	4204,33
1114,71	4258,00
1115,13	4107,00
1115,55	4150,67
1115,98	4071,00
1116,40	4251,33
1116,82	4191,67
1117,24	4137,67
1117,66	4123,67
1118,08	2128,33
1118,50	2171,67
1118,91	2169,67
1119,33	2168,00
>>>>>End Processed Spectral Data<<<<<
