SpectraSuite Data File
++++++++++++++++++++++++++++++++++++
Date: Wed May 16 14:16:14 EEST 2012
User: OO Maya
Dark Spectrum Present: No
Reference Spectrum Present: No
Number of Sampled Component Spectra: 1
Spectrometers: MAYP11278
Integration Time (usec): 400000 (MAYP11278)
Spectra Averaged: 1 (MAYP11278)
Boxcar Smoothing: 0 (MAYP11278)
Correct for Electrical Dark: No (MAYP11278)
Strobe/Lamp Enabled: No (MAYP11278)
Correct for Detector Non-linearity: No (MAYP11278)
Correct for Stray Light: No (MAYP11278)
Number of Pixels in Processed Spectrum: 2068
>>>>>Begin Processed Spectral Data<<<<<
188,05	2295,00
188,53	2210,00
189,01	2180,00
189,49	2182,00
189,96	2759,00
190,44	2789,00
190,92	2752,00
191,40	2770,00
191,88	2825,00
192,36	2794,00
192,83	2759,00
193,31	2746,00
193,79	2787,00
194,27	2759,00
194,75	2790,00
195,23	2745,00
195,70	2796,00
196,18	2783,00
196,66	2785,00
197,14	2863,00
197,62	2766,00
198,09	2757,00
198,57	2778,00
199,05	2754,00
199,53	2792,00
200,01	2838,00
200,48	2748,00
200,96	2784,00
201,44	2821,00
201,92	2811,00
202,39	2816,00
202,87	2744,00
203,35	2797,00
203,83	2748,00
204,31	2809,00
204,78	2848,00
205,26	2757,00
205,74	2767,00
206,22	2845,00
206,69	2770,00
207,17	2806,00
207,65	2885,00
208,13	2790,00
208,60	2793,00
209,08	2801,00
209,56	2834,00
210,04	2786,00
210,51	2782,00
210,99	2761,00
211,47	2794,00
211,94	2779,00
212,42	2767,00
212,90	2838,00
213,38	2840,00
213,85	2768,00
214,33	2845,00
214,81	2803,00
215,29	2860,00
215,76	2799,00
216,24	2842,00
216,72	2818,00
217,19	2806,00
217,67	2789,00
218,15	2785,00
218,62	2841,00
219,10	2731,00
219,58	2744,00
220,05	2768,00
220,53	2811,00
221,01	2849,00
221,49	2797,00
221,96	2839,00
222,44	2788,00
222,92	2822,00
223,39	2790,00
223,87	2842,00
224,35	2798,00
224,82	2790,00
225,30	2774,00
225,78	2804,00
226,25	2798,00
226,73	2828,00
227,21	2821,00
227,68	2780,00
228,16	2803,00
228,63	2800,00
229,11	2799,00
229,59	2771,00
230,06	2796,00
230,54	2788,00
231,02	2825,00
231,49	2827,00
231,97	2805,00
232,45	2807,00
232,92	2735,00
233,40	2791,00
233,87	2807,00
234,35	2899,00
234,83	2807,00
235,30	2787,00
235,78	2791,00
236,25	2755,00
236,73	2835,00
237,21	2882,00
237,68	2799,00
238,16	2807,00
238,63	2796,00
239,11	2809,00
239,59	2787,00
240,06	2772,00
240,54	2813,00
241,01	2848,00
241,49	2816,00
241,96	2815,00
242,44	2845,00
242,92	2851,00
243,39	2746,00
243,87	2783,00
244,34	2830,00
244,82	2865,00
245,29	2796,00
245,77	2821,00
246,24	2858,00
246,72	2766,00
247,20	2811,00
247,67	2800,00
248,15	2813,00
248,62	2834,00
249,10	2754,00
249,57	2813,00
250,05	2828,00
250,52	2820,00
251,00	2846,00
251,47	2811,00
251,95	2884,00
252,42	2876,00
252,90	2801,00
253,37	2831,00
253,85	2788,00
254,32	2781,00
254,80	2820,00
255,27	2832,00
255,75	2803,00
256,22	2808,00
256,70	2833,00
257,17	2836,00
257,65	2832,00
258,12	2900,00
258,60	2833,00
259,07	2828,00
259,55	2828,00
260,02	2829,00
260,50	2880,00
260,97	2776,00
261,45	2800,00
261,92	2839,00
262,40	2792,00
262,87	2814,00
263,35	2823,00
263,82	2774,00
264,30	2845,00
264,77	2854,00
265,25	2798,00
265,72	2830,00
266,19	2792,00
266,67	2805,00
267,14	2804,00
267,62	2790,00
268,09	2839,00
268,57	2816,00
269,04	2738,00
269,51	2791,00
269,99	2798,00
270,46	2833,00
270,94	2848,00
271,41	2798,00
271,89	2843,00
272,36	2777,00
272,83	2749,00
273,31	2763,00
273,78	2814,00
274,26	2932,00
274,73	2836,00
275,20	2840,00
275,68	2773,00
276,15	2806,00
276,63	2818,00
277,10	2835,00
277,57	2754,00
278,05	2806,00
278,52	2784,00
279,00	3003,00
279,47	2780,00
279,94	2781,00
280,42	2959,00
280,89	2869,00
281,36	2923,00
281,84	2778,00
282,31	2857,00
282,78	2771,00
283,26	2786,00
283,73	2813,00
284,21	2789,00
284,68	2758,00
285,15	2829,00
285,63	2789,00
286,10	2826,00
286,57	2837,00
287,05	2765,00
287,52	2819,00
287,99	2872,00
288,47	2784,00
288,94	2821,00
289,41	2761,00
289,89	2868,00
290,36	2792,00
290,83	2813,00
291,30	2787,00
291,78	2835,00
292,25	2890,00
292,72	2792,00
293,20	2847,00
293,67	2826,00
294,14	2805,00
294,62	2821,00
295,09	2800,00
295,56	2834,00
296,03	2843,00
296,51	2847,00
296,98	2858,00
297,45	2814,00
297,93	2826,00
298,40	2855,00
298,87	2785,00
299,34	2877,00
299,82	2791,00
300,29	2821,00
300,76	2791,00
301,23	2861,00
301,71	2857,00
302,18	2868,00
302,65	2809,00
303,12	2872,00
303,60	2845,00
304,07	2774,00
304,54	2766,00
305,01	2777,00
305,49	2825,00
305,96	2835,00
306,43	2833,00
306,90	2826,00
307,38	2804,00
307,85	2818,00
308,32	2827,00
308,79	2802,00
309,27	2838,00
309,74	2842,00
310,21	2836,00
310,68	2810,00
311,15	2881,00
311,63	2789,00
312,10	2865,00
312,57	2814,00
313,04	2899,00
313,51	2807,00
313,99	2802,00
314,46	2838,00
314,93	2800,00
315,40	2786,00
315,87	2856,00
316,34	2828,00
316,82	2828,00
317,29	2835,00
317,76	2837,00
318,23	2925,00
318,70	2827,00
319,17	2801,00
319,65	2781,00
320,12	2814,00
320,59	2891,00
321,06	2858,00
321,53	2809,00
322,00	2740,00
322,48	2771,00
322,95	2898,00
323,42	2797,00
323,89	2918,00
324,36	2799,00
324,83	2826,00
325,30	2816,00
325,78	2821,00
326,25	2811,00
326,72	2800,00
327,19	2818,00
327,66	2850,00
328,13	2824,00
328,60	2831,00
329,07	2821,00
329,54	2835,00
330,02	2821,00
330,49	2788,00
330,96	2851,00
331,43	2827,00
331,90	2891,00
332,37	2809,00
332,84	2898,00
333,31	2859,00
333,78	2859,00
334,25	2880,00
334,72	2843,00
335,20	2830,00
335,67	2976,00
336,14	2779,00
336,61	2852,00
337,08	2819,00
337,55	2853,00
338,02	2808,00
338,49	2845,00
338,96	2910,00
339,43	2866,00
339,90	2821,00
340,37	2817,00
340,84	2814,00
341,31	2871,00
341,78	2845,00
342,25	2837,00
342,72	2838,00
343,19	2865,00
343,67	2863,00
344,14	2821,00
344,61	2854,00
345,08	2806,00
345,55	2831,00
346,02	2888,00
346,49	2827,00
346,96	2870,00
347,43	2933,00
347,90	2860,00
348,37	2899,00
348,84	2869,00
349,31	2807,00
349,78	2951,00
350,25	2941,00
350,72	2908,00
351,19	2879,00
351,66	2946,00
352,13	3034,00
352,60	2957,00
353,07	2969,00
353,54	2988,00
354,01	3009,00
354,48	3024,00
354,94	3057,00
355,41	3061,00
355,88	3165,00
356,35	3141,00
356,82	3260,00
357,29	3240,00
357,76	3406,00
358,23	3435,00
358,70	3436,00
359,17	3584,00
359,64	3694,00
360,11	3856,00
360,58	4073,00
361,05	4326,00
361,52	4501,00
361,99	4699,00
362,46	4993,00
362,93	5330,00
363,39	5765,00
363,86	6312,00
364,33	6706,00
364,80	7292,00
365,27	8043,00
365,74	8692,00
366,21	9761,00
366,68	11040,00
367,15	12488,00
367,62	14197,00
368,09	16292,00
368,55	18453,00
369,02	21190,00
369,49	23959,00
369,96	27306,00
370,43	30584,00
370,90	34051,00
371,37	37617,00
371,84	41302,00
372,31	44852,00
372,77	47937,00
373,24	50934,00
373,71	53153,00
374,18	54802,00
374,65	55672,00
375,12	56360,00
375,59	56185,00
376,05	55619,00
376,52	53868,00
376,99	52156,00
377,46	50009,00
377,93	47625,00
378,40	45036,00
378,86	42734,00
379,33	40165,00
379,80	37844,00
380,27	35700,00
380,74	33536,00
381,21	31727,00
381,67	29855,00
382,14	28162,00
382,61	26747,00
383,08	25490,00
383,55	24054,00
384,02	22795,00
384,48	21493,00
384,95	20738,00
385,42	19279,00
385,89	18336,00
386,36	17333,00
386,82	16641,00
387,29	15446,00
387,76	14546,00
388,23	13721,00
388,69	12851,00
389,16	12182,00
389,63	11405,00
390,10	10826,00
390,57	10275,00
391,03	9732,00
391,50	9293,00
391,97	8825,00
392,44	8439,00
392,90	8066,00
393,37	7634,00
393,84	7421,00
394,31	7058,00
394,77	6877,00
395,24	6558,00
395,71	6318,00
396,18	6344,00
396,64	5934,00
397,11	5711,00
397,58	5636,00
398,05	5314,00
398,51	5189,00
398,98	5004,00
399,45	4855,00
399,92	4732,00
400,38	4578,00
400,85	4479,00
401,32	4303,00
401,78	4318,00
402,25	4175,00
402,72	4122,00
403,18	4004,00
403,65	3984,00
404,12	3875,00
404,59	3768,00
405,05	3806,00
405,52	3694,00
405,99	3589,00
406,45	3584,00
406,92	3533,00
407,39	3552,00
407,85	3406,00
408,32	3397,00
408,79	3356,00
409,25	3251,00
409,72	3352,00
410,19	3217,00
410,65	3292,00
411,12	3206,00
411,59	3231,00
412,05	3118,00
412,52	3102,00
412,99	3123,00
413,45	3074,00
413,92	3123,00
414,39	3107,00
414,85	3108,00
415,32	3058,00
415,78	3107,00
416,25	3056,00
416,72	3039,00
417,18	3087,00
417,65	3005,00
418,12	2993,00
418,58	2981,00
419,05	2974,00
419,51	2992,00
419,98	2945,00
420,45	2983,00
420,91	2905,00
421,38	2942,00
421,84	2896,00
422,31	2917,00
422,78	2934,00
423,24	2915,00
423,71	2920,00
424,17	2916,00
424,64	2898,00
425,11	2970,00
425,57	2902,00
426,04	2962,00
426,50	2871,00
426,97	2942,00
427,43	2901,00
427,90	2931,00
428,37	2852,00
428,83	2916,00
429,30	2892,00
429,76	2874,00
430,23	2903,00
430,69	2987,00
431,16	2857,00
431,62	2858,00
432,09	2919,00
432,55	2925,00
433,02	2855,00
433,48	2851,00
433,95	2857,00
434,42	2863,00
434,88	2905,00
435,35	2818,00
435,81	2874,00
436,28	2831,00
436,74	2825,00
437,21	2898,00
437,67	2867,00
438,14	2872,00
438,60	2822,00
439,07	2838,00
439,53	3007,00
440,00	2878,00
440,46	2859,00
440,93	2891,00
441,39	2828,00
441,86	2833,00
442,32	2979,00
442,79	2819,00
443,25	2875,00
443,72	2872,00
444,18	2797,00
444,64	2913,00
445,11	2867,00
445,57	2825,00
446,04	2820,00
446,50	2847,00
446,97	2851,00
447,43	2869,00
447,90	2817,00
448,36	2829,00
448,83	2863,00
449,29	2838,00
449,75	2813,00
450,22	2834,00
450,68	2817,00
451,15	2837,00
451,61	2859,00
452,08	2866,00
452,54	2811,00
453,00	2877,00
453,47	2814,00
453,93	2832,00
454,40	2831,00
454,86	2878,00
455,32	2797,00
455,79	2858,00
456,25	2845,00
456,72	2800,00
457,18	2869,00
457,64	2855,00
458,11	2819,00
458,57	2789,00
459,04	2845,00
459,50	2844,00
459,96	2845,00
460,43	2802,00
460,89	2786,00
461,36	2881,00
461,82	2855,00
462,28	2831,00
462,75	2788,00
463,21	2879,00
463,67	2797,00
464,14	2809,00
464,60	2845,00
465,06	2801,00
465,53	2838,00
465,99	2885,00
466,45	2838,00
466,92	2842,00
467,38	2833,00
467,84	2818,00
468,31	2828,00
468,77	2848,00
469,23	2828,00
469,70	2791,00
470,16	2844,00
470,62	2833,00
471,09	2805,00
471,55	2825,00
472,01	2819,00
472,48	2818,00
472,94	2817,00
473,40	2882,00
473,87	2828,00
474,33	2783,00
474,79	2809,00
475,25	2800,00
475,72	2854,00
476,18	2838,00
476,64	2847,00
477,11	2809,00
477,57	2822,00
478,03	2891,00
478,49	2831,00
478,96	2853,00
479,42	2787,00
479,88	2883,00
480,35	2839,00
480,81	2820,00
481,27	2795,00
481,73	2799,00
482,20	2815,00
482,66	2820,00
483,12	2806,00
483,58	2798,00
484,05	2803,00
484,51	2882,00
484,97	2820,00
485,43	2823,00
485,89	2767,00
486,36	2811,00
486,82	2754,00
487,28	2853,00
487,74	2794,00
488,21	2751,00
488,67	2803,00
489,13	2843,00
489,59	2820,00
490,05	2886,00
490,52	2776,00
490,98	2828,00
491,44	2789,00
491,90	2796,00
492,36	2751,00
492,83	2867,00
493,29	2858,00
493,75	2810,00
494,21	2794,00
494,67	2799,00
495,14	2796,00
495,60	2780,00
496,06	2837,00
496,52	2818,00
496,98	2792,00
497,44	2901,00
497,91	2849,00
498,37	2826,00
498,83	2844,00
499,29	2832,00
499,75	2939,00
500,21	2818,00
500,67	2804,00
501,14	2812,00
501,60	2791,00
502,06	2848,00
502,52	2799,00
502,98	2816,00
503,44	2827,00
503,90	2850,00
504,37	2825,00
504,83	2829,00
505,29	2835,00
505,75	2802,00
506,21	2821,00
506,67	2866,00
507,13	2819,00
507,59	2827,00
508,05	2858,00
508,51	2818,00
508,98	2791,00
509,44	2803,00
509,90	2845,00
510,36	2844,00
510,82	2817,00
511,28	2883,00
511,74	2889,00
512,20	2827,00
512,66	2784,00
513,12	2832,00
513,58	2857,00
514,04	2771,00
514,51	2908,00
514,97	2906,00
515,43	2802,00
515,89	2835,00
516,35	2888,00
516,81	2882,00
517,27	2971,00
517,73	2870,00
518,19	2846,00
518,65	2983,00
519,11	2847,00
519,57	2834,00
520,03	2828,00
520,49	2836,00
520,95	2866,00
521,41	2869,00
521,87	2882,00
522,33	2859,00
522,79	2806,00
523,25	2947,00
523,71	2907,00
524,17	2870,00
524,63	2902,00
525,09	2887,00
525,55	2899,00
526,01	2919,00
526,47	2874,00
526,93	2850,00
527,39	2873,00
527,85	2868,00
528,31	2915,00
528,77	2907,00
529,23	2864,00
529,69	2836,00
530,15	2909,00
530,61	2878,00
531,07	2820,00
531,53	2919,00
531,99	2873,00
532,45	2861,00
532,91	2879,00
533,37	2893,00
533,83	2850,00
534,29	2849,00
534,75	2861,00
535,21	2851,00
535,67	2860,00
536,12	2860,00
536,58	2899,00
537,04	2845,00
537,50	2898,00
537,96	2866,00
538,42	2880,00
538,88	2948,00
539,34	2892,00
539,80	3105,00
540,26	2853,00
540,72	2971,00
541,18	2878,00
541,63	2840,00
542,09	2889,00
542,55	2889,00
543,01	2879,00
543,47	2969,00
543,93	2839,00
544,39	2958,00
544,85	2933,00
545,31	2886,00
545,76	2886,00
546,22	2923,00
546,68	2869,00
547,14	2887,00
547,60	2925,00
548,06	2888,00
548,52	2882,00
548,98	2876,00
549,43	2865,00
549,89	3000,00
550,35	2877,00
550,81	2834,00
551,27	2893,00
551,73	2896,00
552,19	2953,00
552,64	2889,00
553,10	2853,00
553,56	2886,00
554,02	2856,00
554,48	2836,00
554,93	2903,00
555,39	2858,00
555,85	2941,00
556,31	2874,00
556,77	2942,00
557,23	2819,00
557,68	2911,00
558,14	3000,00
558,60	2863,00
559,06	2879,00
559,52	2862,00
559,97	2850,00
560,43	2843,00
560,89	2877,00
561,35	2876,00
561,81	2869,00
562,26	2851,00
562,72	2829,00
563,18	2898,00
563,64	2921,00
564,09	2837,00
564,55	2889,00
565,01	2882,00
565,47	2863,00
565,92	2905,00
566,38	2915,00
566,84	2868,00
567,30	2859,00
567,75	2895,00
568,21	2919,00
568,67	2868,00
569,13	2904,00
569,58	2935,00
570,04	2897,00
570,50	2876,00
570,96	2921,00
571,41	2914,00
571,87	2889,00
572,33	2899,00
572,78	2912,00
573,24	2849,00
573,70	2860,00
574,16	2891,00
574,61	2922,00
575,07	2885,00
575,53	2818,00
575,98	2880,00
576,44	2822,00
576,90	2918,00
577,36	2888,00
577,81	2874,00
578,27	2863,00
578,73	2948,00
579,18	2879,00
579,64	2904,00
580,10	2898,00
580,55	2891,00
581,01	2893,00
581,47	2850,00
581,92	2890,00
582,38	2873,00
582,84	2862,00
583,29	2876,00
583,75	2909,00
584,21	2870,00
584,66	2911,00
585,12	2829,00
585,57	2986,00
586,03	2892,00
586,49	2871,00
586,94	2864,00
587,40	2872,00
587,86	2885,00
588,31	2858,00
588,77	2916,00
589,22	2906,00
589,68	2826,00
590,14	2883,00
590,59	2904,00
591,05	2844,00
591,51	2817,00
591,96	2921,00
592,42	2856,00
592,87	2913,00
593,33	2860,00
593,78	2882,00
594,24	2896,00
594,70	2878,00
595,15	2942,00
595,61	2857,00
596,06	2854,00
596,52	2923,00
596,98	2905,00
597,43	2936,00
597,89	2876,00
598,34	2831,00
598,80	2876,00
599,25	2911,00
599,71	2834,00
600,16	2914,00
600,62	2926,00
601,08	2848,00
601,53	2903,00
601,99	2830,00
602,44	2984,00
602,90	2879,00
603,35	2895,00
603,81	2819,00
604,26	2828,00
604,72	2888,00
605,17	2860,00
605,63	2910,00
606,08	2876,00
606,54	2835,00
606,99	2873,00
607,45	2873,00
607,90	2885,00
608,36	2883,00
608,81	2855,00
609,27	2972,00
609,72	2882,00
610,18	2863,00
610,63	2845,00
611,09	2886,00
611,54	2829,00
612,00	2942,00
612,45	2889,00
612,91	2856,00
613,36	3022,00
613,82	2818,00
614,27	2814,00
614,73	2800,00
615,18	2838,00
615,64	2851,00
616,09	2840,00
616,54	2822,00
617,00	2841,00
617,45	2864,00
617,91	2889,00
618,36	2826,00
618,82	2837,00
619,27	2835,00
619,72	2882,00
620,18	2837,00
620,63	2880,00
621,09	2924,00
621,54	2833,00
622,00	2926,00
622,45	2916,00
622,90	2885,00
623,36	2838,00
623,81	2830,00
624,27	2900,00
624,72	2820,00
625,17	2843,00
625,63	2875,00
626,08	2819,00
626,54	2853,00
626,99	2859,00
627,44	2859,00
627,90	2909,00
628,35	2881,00
628,81	2783,00
629,26	2866,00
629,71	2877,00
630,17	2816,00
630,62	2863,00
631,07	2850,00
631,53	2904,00
631,98	2875,00
632,43	2895,00
632,89	2837,00
633,34	2808,00
633,79	2846,00
634,25	2847,00
634,70	2806,00
635,15	2837,00
635,61	2825,00
636,06	2819,00
636,51	2829,00
636,97	2840,00
637,42	2823,00
637,87	2889,00
638,33	2909,00
638,78	2823,00
639,23	2843,00
639,69	2814,00
640,14	2815,00
640,59	2891,00
641,05	2880,00
641,50	2813,00
641,95	2857,00
642,40	2828,00
642,86	2814,00
643,31	2825,00
643,76	2885,00
644,22	2843,00
644,67	2813,00
645,12	2854,00
645,57	2823,00
646,03	2882,00
646,48	2873,00
646,93	2858,00
647,38	2913,00
647,84	2860,00
648,29	2877,00
648,74	2803,00
649,19	2877,00
649,65	2878,00
650,10	3046,00
650,55	2843,00
651,00	2833,00
651,46	2826,00
651,91	2869,00
652,36	2803,00
652,81	2849,00
653,27	2855,00
653,72	2839,00
654,17	2849,00
654,62	2859,00
655,07	2827,00
655,53	2793,00
655,98	2859,00
656,43	2788,00
656,88	2819,00
657,33	2835,00
657,79	2870,00
658,24	2793,00
658,69	2835,00
659,14	2812,00
659,59	3007,00
660,05	2809,00
660,50	2867,00
660,95	2823,00
661,40	2801,00
661,85	2811,00
662,30	2810,00
662,76	2789,00
663,21	2850,00
663,66	2818,00
664,11	2822,00
664,56	2810,00
665,01	2784,00
665,47	2837,00
665,92	2802,00
666,37	2829,00
666,82	2815,00
667,27	2957,00
667,72	2878,00
668,17	2808,00
668,62	2844,00
669,08	2796,00
669,53	2917,00
669,98	2749,00
670,43	2796,00
670,88	2896,00
671,33	2834,00
671,78	2906,00
672,23	2924,00
672,69	2811,00
673,14	2822,00
673,59	2854,00
674,04	2959,00
674,49	2848,00
674,94	2837,00
675,39	2787,00
675,84	2774,00
676,29	2809,00
676,74	2815,00
677,19	2803,00
677,64	2817,00
678,10	2962,00
678,55	2821,00
679,00	2794,00
679,45	2825,00
679,90	2809,00
680,35	2829,00
680,80	2789,00
681,25	2749,00
681,70	2742,00
682,15	2814,00
682,60	2831,00
683,05	2823,00
683,50	2852,00
683,95	2792,00
684,40	2856,00
684,85	2844,00
685,30	2825,00
685,75	2815,00
686,20	2807,00
686,65	2768,00
687,10	2825,00
687,55	2767,00
688,00	2828,00
688,45	2792,00
688,90	2957,00
689,35	2819,00
689,80	2774,00
690,25	2795,00
690,70	2801,00
691,15	2760,00
691,60	2791,00
692,05	2756,00
692,50	2823,00
692,95	2791,00
693,40	2843,00
693,85	2811,00
694,30	2844,00
694,75	2811,00
695,20	3001,00
695,65	2819,00
696,10	2819,00
696,55	2915,00
697,00	2821,00
697,45	2828,00
697,90	2816,00
698,35	2753,00
698,80	2847,00
699,24	2835,00
699,69	2770,00
700,14	2766,00
700,59	2842,00
701,04	2859,00
701,49	2992,00
701,94	2774,00
702,39	2876,00
702,84	2800,00
703,29	2796,00
703,74	2812,00
704,19	2791,00
704,63	2804,00
705,08	2861,00
705,53	2849,00
705,98	2859,00
706,43	2777,00
706,88	2834,00
707,33	2816,00
707,78	2823,00
708,22	2820,00
708,67	2822,00
709,12	2821,00
709,57	2779,00
710,02	2794,00
710,47	2806,00
710,92	2802,00
711,37	2834,00
711,81	2810,00
712,26	2827,00
712,71	2803,00
713,16	2900,00
713,61	2817,00
714,06	2834,00
714,50	2883,00
714,95	2854,00
715,40	2763,00
715,85	2827,00
716,30	2792,00
716,75	2791,00
717,19	2767,00
717,64	2741,00
718,09	2823,00
718,54	2883,00
718,99	2763,00
719,43	2774,00
719,88	2816,00
720,33	2806,00
720,78	2788,00
721,23	2828,00
721,67	2792,00
722,12	2819,00
722,57	2814,00
723,02	2767,00
723,47	2751,00
723,91	2820,00
724,36	2767,00
724,81	2833,00
725,26	2751,00
725,70	2794,00
726,15	2811,00
726,60	2799,00
727,05	2873,00
727,49	2773,00
727,94	2877,00
728,39	2826,00
728,84	2786,00
729,28	2849,00
729,73	2770,00
730,18	2835,00
730,63	2754,00
731,07	2804,00
731,52	2810,00
731,97	2810,00
732,41	2791,00
732,86	2775,00
733,31	2841,00
733,76	2820,00
734,20	2775,00
734,65	2843,00
735,10	2811,00
735,54	2806,00
735,99	2946,00
736,44	2776,00
736,89	2831,00
737,33	2861,00
737,78	2839,00
738,23	2821,00
738,67	2809,00
739,12	2819,00
739,57	2757,00
740,01	2846,00
740,46	2839,00
740,91	2798,00
741,35	2837,00
741,80	2834,00
742,25	2795,00
742,69	2807,00
743,14	2759,00
743,59	2782,00
744,03	2792,00
744,48	2850,00
744,92	2822,00
745,37	2804,00
745,82	2845,00
746,26	2887,00
746,71	2736,00
747,16	2759,00
747,60	2734,00
748,05	2813,00
748,49	2773,00
748,94	2796,00
749,39	2824,00
749,83	2933,00
750,28	2796,00
750,73	2783,00
751,17	2764,00
751,62	2793,00
752,06	2803,00
752,51	2813,00
752,95	2912,00
753,40	2787,00
753,85	2792,00
754,29	2757,00
754,74	2806,00
755,18	2785,00
755,63	2815,00
756,07	2814,00
756,52	2843,00
756,97	2807,00
757,41	2870,00
757,86	2817,00
758,30	2795,00
758,75	2805,00
759,19	2794,00
759,64	2785,00
760,08	2774,00
760,53	2795,00
760,98	2822,00
761,42	2828,00
761,87	2853,00
762,31	2754,00
762,76	2745,00
763,20	2789,00
763,65	2820,00
764,09	2798,00
764,54	2772,00
764,98	2775,00
765,43	2835,00
765,87	2762,00
766,32	2747,00
766,76	2777,00
767,21	2823,00
767,65	2791,00
768,10	2829,00
768,54	2829,00
768,99	2807,00
769,43	2894,00
769,88	2766,00
770,32	2798,00
770,77	2763,00
771,21	2775,00
771,65	2843,00
772,10	2823,00
772,54	2783,00
772,99	2751,00
773,43	2808,00
773,88	2797,00
774,32	2732,00
774,77	2799,00
775,21	2780,00
775,65	2812,00
776,10	2778,00
776,54	2757,00
776,99	2815,00
777,43	2768,00
777,88	2823,00
778,32	2838,00
778,76	2794,00
779,21	2801,00
779,65	2904,00
780,10	2866,00
780,54	2763,00
780,99	2840,00
781,43	2829,00
781,87	2790,00
782,32	2815,00
782,76	2759,00
783,20	2794,00
783,65	2815,00
784,09	2831,00
784,54	2799,00
784,98	2774,00
785,42	2797,00
785,87	2774,00
786,31	2852,00
786,75	2829,00
787,20	2826,00
787,64	2783,00
788,09	2758,00
788,53	2825,00
788,97	2767,00
789,42	2775,00
789,86	2762,00
790,30	2803,00
790,75	2766,00
791,19	2787,00
791,63	2836,00
792,08	2799,00
792,52	2809,00
792,96	2779,00
793,41	2989,00
793,85	2831,00
794,29	2812,00
794,74	2784,00
795,18	2784,00
795,62	2752,00
796,06	2791,00
796,51	2783,00
796,95	2802,00
797,39	2788,00
797,84	2743,00
798,28	2785,00
798,72	2844,00
799,16	2808,00
799,61	2772,00
800,05	2887,00
800,49	2811,00
800,94	2790,00
801,38	2792,00
801,82	2816,00
802,26	2749,00
802,71	2840,00
803,15	2855,00
803,59	2833,00
804,03	2794,00
804,48	2790,00
804,92	2769,00
805,36	2873,00
805,80	2895,00
806,25	2841,00
806,69	2841,00
807,13	2902,00
807,57	2794,00
808,01	2847,00
808,46	2774,00
808,90	2820,00
809,34	2812,00
809,78	2761,00
810,23	2771,00
810,67	2825,00
811,11	2876,00
811,55	2961,00
811,99	2809,00
812,44	2784,00
812,88	2829,00
813,32	2878,00
813,76	2863,00
814,20	2800,00
814,64	2832,00
815,09	2820,00
815,53	2776,00
815,97	2762,00
816,41	2779,00
816,85	2817,00
817,29	2807,00
817,74	2782,00
818,18	2849,00
818,62	2791,00
819,06	2830,00
819,50	2848,00
819,94	2783,00
820,39	2830,00
820,83	2799,00
821,27	2780,00
821,71	2759,00
822,15	2858,00
822,59	2755,00
823,03	2780,00
823,47	2802,00
823,92	2761,00
824,36	2784,00
824,80	2796,00
825,24	2815,00
825,68	2789,00
826,12	2762,00
826,56	2753,00
827,00	2747,00
827,44	2780,00
827,88	2809,00
828,33	2827,00
828,77	2769,00
829,21	2819,00
829,65	2827,00
830,09	2773,00
830,53	2872,00
830,97	2782,00
831,41	2908,00
831,85	2861,00
832,29	2805,00
832,73	2747,00
833,17	2810,00
833,61	2797,00
834,05	2826,00
834,49	2802,00
834,93	2798,00
835,37	2765,00
835,82	2835,00
836,26	2789,00
836,70	2824,00
837,14	2793,00
837,58	2845,00
838,02	2778,00
838,46	2781,00
838,90	2829,00
839,34	2774,00
839,78	2874,00
840,22	2863,00
840,66	2808,00
841,10	2876,00
841,54	2747,00
841,98	2776,00
842,42	2736,00
842,86	2818,00
843,30	2824,00
843,74	2800,00
844,18	2825,00
844,62	2785,00
845,06	2772,00
845,50	2806,00
845,94	2803,00
846,37	2840,00
846,81	2791,00
847,25	2758,00
847,69	2801,00
848,13	2776,00
848,57	2782,00
849,01	2790,00
849,45	2815,00
849,89	2832,00
850,33	2816,00
850,77	2810,00
851,21	2841,00
851,65	2770,00
852,09	2821,00
852,53	2825,00
852,97	2790,00
853,40	2784,00
853,84	2849,00
854,28	2754,00
854,72	2828,00
855,16	2735,00
855,60	2766,00
856,04	2859,00
856,48	2847,00
856,92	2824,00
857,36	2847,00
857,79	2788,00
858,23	2766,00
858,67	2847,00
859,11	2754,00
859,55	2781,00
859,99	2763,00
860,43	2799,00
860,87	2782,00
861,30	2830,00
861,74	2770,00
862,18	2769,00
862,62	2828,00
863,06	2767,00
863,50	2785,00
863,94	2852,00
864,37	2777,00
864,81	2783,00
865,25	2797,00
865,69	2774,00
866,13	2797,00
866,57	2717,00
867,00	2826,00
867,44	2761,00
867,88	2811,00
868,32	2779,00
868,76	2767,00
869,19	2819,00
869,63	2799,00
870,07	2873,00
870,51	2885,00
870,95	2771,00
871,38	2807,00
871,82	2785,00
872,26	2787,00
872,70	2800,00
873,14	2813,00
873,57	2829,00
874,01	2850,00
874,45	2836,00
874,89	2786,00
875,32	2757,00
875,76	2863,00
876,20	2732,00
876,64	2806,00
877,07	2793,00
877,51	2790,00
877,95	2815,00
878,39	2798,00
878,82	2804,00
879,26	2795,00
879,70	2866,00
880,14	2771,00
880,57	2768,00
881,01	2767,00
881,45	2787,00
881,89	2842,00
882,32	2774,00
882,76	2785,00
883,20	2803,00
883,63	2781,00
884,07	2760,00
884,51	2849,00
884,94	2803,00
885,38	2830,00
885,82	2834,00
886,26	2772,00
886,69	2777,00
887,13	2896,00
887,57	2758,00
888,00	2776,00
888,44	2803,00
888,88	2782,00
889,31	2916,00
889,75	2773,00
890,19	2828,00
890,62	2768,00
891,06	2822,00
891,50	2801,00
891,93	2726,00
892,37	2790,00
892,81	2813,00
893,24	2742,00
893,68	2788,00
894,11	2802,00
894,55	2781,00
894,99	2836,00
895,42	2771,00
895,86	2735,00
896,30	2809,00
896,73	2822,00
897,17	2761,00
897,60	2768,00
898,04	2774,00
898,48	2810,00
898,91	2846,00
899,35	2760,00
899,78	2784,00
900,22	2764,00
900,66	2828,00
901,09	2843,00
901,53	2791,00
901,96	2872,00
902,40	2899,00
902,84	2768,00
903,27	2775,00
903,71	2855,00
904,14	2765,00
904,58	2825,00
905,01	2766,00
905,45	2774,00
905,88	2752,00
906,32	2837,00
906,76	2799,00
907,19	2845,00
907,63	2798,00
908,06	2790,00
908,50	2846,00
908,93	2853,00
909,37	2779,00
909,80	2750,00
910,24	2815,00
910,67	2807,00
911,11	2778,00
911,54	2761,00
911,98	2785,00
912,41	2800,00
912,85	2781,00
913,28	2805,00
913,72	2826,00
914,15	2798,00
914,59	2756,00
915,02	2775,00
915,46	2761,00
915,89	2782,00
916,33	2821,00
916,76	2764,00
917,20	2847,00
917,63	2791,00
918,07	2816,00
918,50	2777,00
918,94	2787,00
919,37	2809,00
919,81	2807,00
920,24	2824,00
920,67	2789,00
921,11	2857,00
921,54	2806,00
921,98	2787,00
922,41	2773,00
922,85	2745,00
923,28	2806,00
923,72	2847,00
924,15	2839,00
924,58	2734,00
925,02	2804,00
925,45	2752,00
925,89	2817,00
926,32	2894,00
926,75	2781,00
927,19	2792,00
927,62	2761,00
928,06	2885,00
928,49	2797,00
928,92	2730,00
929,36	2858,00
929,79	2799,00
930,23	2792,00
930,66	2829,00
931,09	2792,00
931,53	2806,00
931,96	2725,00
932,39	2877,00
932,83	2842,00
933,26	2917,00
933,70	2771,00
934,13	2867,00
934,56	2806,00
935,00	2808,00
935,43	2799,00
935,86	2727,00
936,30	2775,00
936,73	2766,00
937,16	2789,00
937,60	2761,00
938,03	2819,00
938,46	2775,00
938,90	2805,00
939,33	2791,00
939,76	2756,00
940,19	2767,00
940,63	2849,00
941,06	2863,00
941,49	2755,00
941,93	2856,00
942,36	2763,00
942,79	2768,00
943,23	2819,00
943,66	2754,00
944,09	2751,00
944,52	2837,00
944,96	2763,00
945,39	2830,00
945,82	2799,00
946,26	2818,00
946,69	2805,00
947,12	2834,00
947,55	2775,00
947,99	2762,00
948,42	2804,00
948,85	2739,00
949,28	2763,00
949,72	2760,00
950,15	2892,00
950,58	2841,00
951,01	2761,00
951,45	2762,00
951,88	2805,00
952,31	2767,00
952,74	2823,00
953,17	2770,00
953,61	2864,00
954,04	2742,00
954,47	2788,00
954,90	2759,00
955,33	2767,00
955,77	2792,00
956,20	2822,00
956,63	2748,00
957,06	2785,00
957,49	2925,00
957,93	2757,00
958,36	2813,00
958,79	2801,00
959,22	2728,00
959,65	2760,00
960,08	2776,00
960,52	2731,00
960,95	2762,00
961,38	2815,00
961,81	2800,00
962,24	2819,00
962,67	2818,00
963,11	2765,00
963,54	2777,00
963,97	2768,00
964,40	2793,00
964,83	2774,00
965,26	2786,00
965,69	2823,00
966,13	2748,00
966,56	2755,00
966,99	2817,00
967,42	2746,00
967,85	2767,00
968,28	2848,00
968,71	2973,00
969,14	2820,00
969,57	2793,00
970,01	2811,00
970,44	2753,00
970,87	2762,00
971,30	2815,00
971,73	2767,00
972,16	2786,00
972,59	2759,00
973,02	2745,00
973,45	2786,00
973,88	2802,00
974,31	2792,00
974,74	2811,00
975,17	2771,00
975,61	2789,00
976,04	2745,00
976,47	2771,00
976,90	2800,00
977,33	2740,00
977,76	2803,00
978,19	2790,00
978,62	2775,00
979,05	2766,00
979,48	2775,00
979,91	2834,00
980,34	2829,00
980,77	2746,00
981,20	2782,00
981,63	2812,00
982,06	2799,00
982,49	2801,00
982,92	2779,00
983,35	2782,00
983,78	2771,00
984,21	2825,00
984,64	2818,00
985,07	2776,00
985,50	2716,00
985,93	2771,00
986,36	2786,00
986,79	2767,00
987,22	2735,00
987,65	2831,00
988,08	2786,00
988,51	2799,00
988,94	2792,00
989,37	2805,00
989,80	2785,00
990,23	2756,00
990,66	2797,00
991,09	2788,00
991,51	2791,00
991,94	2875,00
992,37	2773,00
992,80	2744,00
993,23	2787,00
993,66	2765,00
994,09	2761,00
994,52	2806,00
994,95	2819,00
995,38	2805,00
995,81	2798,00
996,24	2760,00
996,67	2762,00
997,09	2719,00
997,52	2832,00
997,95	2815,00
998,38	2773,00
998,81	2828,00
999,24	2767,00
999,67	2825,00
1000,10	2778,00
1000,53	2819,00
1000,95	2842,00
1001,38	2756,00
1001,81	2769,00
1002,24	2812,00
1002,67	2763,00
1003,10	2789,00
1003,53	2787,00
1003,95	2817,00
1004,38	2739,00
1004,81	2797,00
1005,24	2795,00
1005,67	2837,00
1006,10	2798,00
1006,52	2730,00
1006,95	2828,00
1007,38	2792,00
1007,81	2784,00
1008,24	2734,00
1008,67	2765,00
1009,09	2773,00
1009,52	2945,00
1009,95	2847,00
1010,38	2791,00
1010,81	2795,00
1011,23	2814,00
1011,66	2857,00
1012,09	2760,00
1012,52	2810,00
1012,95	2815,00
1013,37	2782,00
1013,80	2804,00
1014,23	2737,00
1014,66	2821,00
1015,08	2715,00
1015,51	2825,00
1015,94	2746,00
1016,37	2823,00
1016,80	2762,00
1017,22	2793,00
1017,65	2772,00
1018,08	2758,00
1018,51	2785,00
1018,93	2741,00
1019,36	2905,00
1019,79	2846,00
1020,21	2837,00
1020,64	2766,00
1021,07	2805,00
1021,50	2797,00
1021,92	2809,00
1022,35	2806,00
1022,78	2783,00
1023,21	2934,00
1023,63	2819,00
1024,06	2817,00
1024,49	2784,00
1024,91	2816,00
1025,34	2786,00
1025,77	2805,00
1026,19	2750,00
1026,62	2761,00
1027,05	2903,00
1027,47	2824,00
1027,90	2803,00
1028,33	2813,00
1028,75	2776,00
1029,18	2765,00
1029,61	2886,00
1030,03	2798,00
1030,46	2783,00
1030,89	2810,00
1031,31	2841,00
1031,74	2762,00
1032,17	2783,00
1032,59	2805,00
1033,02	2791,00
1033,45	2815,00
1033,87	2762,00
1034,30	2764,00
1034,73	2795,00
1035,15	2820,00
1035,58	2777,00
1036,00	2832,00
1036,43	2766,00
1036,86	2781,00
1037,28	2811,00
1037,71	2733,00
1038,13	2814,00
1038,56	2828,00
1038,99	2803,00
1039,41	2853,00
1039,84	2846,00
1040,26	2781,00
1040,69	2777,00
1041,11	2795,00
1041,54	2751,00
1041,97	2850,00
1042,39	2836,00
1042,82	2781,00
1043,24	2815,00
1043,67	2779,00
1044,09	2813,00
1044,52	2742,00
1044,95	2786,00
1045,37	2801,00
1045,80	2742,00
1046,22	2793,00
1046,65	2825,00
1047,07	2745,00
1047,50	2807,00
1047,92	2810,00
1048,35	2743,00
1048,77	2831,00
1049,20	2805,00
1049,62	2834,00
1050,05	2750,00
1050,47	2778,00
1050,90	2806,00
1051,32	2807,00
1051,75	2817,00
1052,17	2856,00
1052,60	2799,00
1053,02	2798,00
1053,45	2741,00
1053,87	2805,00
1054,30	2725,00
1054,72	2796,00
1055,15	2753,00
1055,57	2798,00
1056,00	2818,00
1056,42	2867,00
1056,85	2840,00
1057,27	2830,00
1057,70	2823,00
1058,12	2958,00
1058,54	2757,00
1058,97	2810,00
1059,39	2811,00
1059,82	2803,00
1060,24	2793,00
1060,67	2748,00
1061,09	2808,00
1061,51	2778,00
1061,94	2801,00
1062,36	2840,00
1062,79	2860,00
1063,21	2772,00
1063,64	2771,00
1064,06	2759,00
1064,48	2821,00
1064,91	2806,00
1065,33	2778,00
1065,76	2772,00
1066,18	2741,00
1066,60	2845,00
1067,03	2820,00
1067,45	2769,00
1067,87	2791,00
1068,30	2777,00
1068,72	2856,00
1069,15	2779,00
1069,57	2763,00
1069,99	2759,00
1070,42	2806,00
1070,84	2840,00
1071,26	2815,00
1071,69	2801,00
1072,11	2815,00
1072,53	2768,00
1072,96	2770,00
1073,38	2733,00
1073,80	2806,00
1074,23	2768,00
1074,65	2751,00
1075,07	2795,00
1075,50	2770,00
1075,92	2799,00
1076,34	2757,00
1076,77	2761,00
1077,19	2791,00
1077,61	2814,00
1078,04	2761,00
1078,46	2807,00
1078,88	2838,00
1079,30	2742,00
1079,73	2786,00
1080,15	2779,00
1080,57	2803,00
1081,00	2816,00
1081,42	2787,00
1081,84	2775,00
1082,26	2790,00
1082,69	2787,00
1083,11	2773,00
1083,53	2819,00
1083,95	2772,00
1084,38	2848,00
1084,80	2802,00
1085,22	2783,00
1085,64	2839,00
1086,07	2745,00
1086,49	2787,00
1086,91	2795,00
1087,33	2730,00
1087,76	2816,00
1088,18	4067,00
1088,60	2811,00
1089,02	2757,00
1089,45	2782,00
1089,87	2785,00
1090,29	2828,00
1090,71	2782,00
1091,13	2739,00
1091,56	2779,00
1091,98	2786,00
1092,40	2769,00
1092,82	2797,00
1093,24	2785,00
1093,66	2787,00
1094,09	2757,00
1094,51	2756,00
1094,93	2795,00
1095,35	2798,00
1095,77	2762,00
1096,19	2778,00
1096,62	2786,00
1097,04	2753,00
1097,46	2811,00
1097,88	2755,00
1098,30	2817,00
1098,72	2801,00
1099,15	2804,00
1099,57	2771,00
1099,99	2763,00
1100,41	2755,00
1100,83	2807,00
1101,25	2765,00
1101,67	2751,00
1102,09	2754,00
1102,52	2753,00
1102,94	2777,00
1103,36	2751,00
1103,78	2779,00
1104,20	2747,00
1104,62	2843,00
1105,04	2710,00
1105,46	2785,00
1105,88	2760,00
1106,30	2743,00
1106,73	2778,00
1107,15	2728,00
1107,57	2741,00
1107,99	2831,00
1108,41	2725,00
1108,83	2787,00
1109,25	2792,00
1109,67	2792,00
1110,09	2701,00
1110,51	2735,00
1110,93	2713,00
1111,35	2718,00
1111,77	2741,00
1112,19	2715,00
1112,61	2731,00
1113,03	2763,00
1113,45	2753,00
1113,87	2748,00
1114,29	2769,00
1114,71	2771,00
1115,13	2750,00
1115,55	2763,00
1115,98	2726,00
1116,40	2787,00
1116,82	2755,00
1117,24	2769,00
1117,66	2706,00
1118,08	2176,00
1118,50	2180,00
1118,91	2181,00
1119,33	2181,00
>>>>>End Processed Spectral Data<<<<<
