SpectraSuite Data File
++++++++++++++++++++++++++++++++++++
Date: Wed May 16 13:55:54 EEST 2012
User: OO Maya
Dark Spectrum Present: No
Reference Spectrum Present: No
Number of Sampled Component Spectra: 1
Spectrometers: MAYP11278
Integration Time (usec): 9000000 (MAYP11278)
Spectra Averaged: 3 (MAYP11278)
Boxcar Smoothing: 0 (MAYP11278)
Correct for Electrical Dark: No (MAYP11278)
Strobe/Lamp Enabled: No (MAYP11278)
Correct for Detector Non-linearity: No (MAYP11278)
Correct for Stray Light: No (MAYP11278)
Number of Pixels in Processed Spectrum: 2068
>>>>>Begin Processed Spectral Data<<<<<
188,05	2280,33
188,53	2204,33
189,01	2174,67
189,49	2175,00
189,96	11584,33
190,44	12184,33
190,92	11889,33
191,40	12129,33
191,88	12765,00
192,36	12078,67
192,83	11764,00
193,31	11422,67
193,79	12037,67
194,27	11906,67
194,75	12506,33
195,23	11878,67
195,70	12734,33
196,18	11864,00
196,66	12057,00
197,14	14099,00
197,62	12209,33
198,09	11636,67
198,57	11912,00
199,05	11676,33
199,53	12426,33
200,01	12789,00
200,48	11970,33
200,96	12010,67
201,44	12684,67
201,92	12713,00
202,39	12754,00
202,87	11612,33
203,35	12449,67
203,83	11785,33
204,31	12817,33
204,78	13234,67
205,26	11844,33
205,74	11932,00
206,22	13287,00
206,69	12020,00
207,17	12476,33
207,65	14187,33
208,13	12361,67
208,60	12663,00
209,08	12235,33
209,56	12883,67
210,04	12701,33
210,51	12300,67
210,99	12257,67
211,47	12716,33
211,94	12424,67
212,42	11921,00
212,90	13643,00
213,38	12745,00
213,85	12063,67
214,33	13548,67
214,81	12729,00
215,29	13505,33
215,76	12653,67
216,24	12886,00
216,72	12977,00
217,19	12860,67
217,67	12210,67
218,15	12234,67
218,62	13448,33
219,10	11568,33
219,58	11990,33
220,05	12187,67
220,53	12461,00
221,01	13338,00
221,49	12181,33
221,96	13071,67
222,44	11994,67
222,92	13062,67
223,39	12156,67
223,87	13128,33
224,35	12504,67
224,82	12405,00
225,30	11805,33
225,78	12437,33
226,25	12051,33
226,73	12555,33
227,21	13039,33
227,68	12484,00
228,16	12716,67
228,63	12976,33
229,11	12847,00
229,59	12305,00
230,06	12304,67
230,54	12220,33
231,02	12986,33
231,49	12996,33
231,97	12595,00
232,45	12714,67
232,92	11867,00
233,40	12590,00
233,87	12622,67
234,35	15020,00
234,83	12772,33
235,30	12162,67
235,78	12045,00
236,25	11714,67
236,73	13187,67
237,21	14083,33
237,68	12188,00
238,16	12725,67
238,63	12658,00
239,11	12669,00
239,59	12452,00
240,06	11746,67
240,54	12858,33
241,01	13422,00
241,49	12697,33
241,96	12511,00
242,44	13067,00
242,92	13279,67
243,39	11883,00
243,87	12127,00
244,34	13173,33
244,82	13561,67
245,29	12526,67
245,77	13516,67
246,24	13341,33
246,72	12121,67
247,20	12643,67
247,67	12563,67
248,15	12814,00
248,62	13019,33
249,10	11544,67
249,57	12663,00
250,05	13143,33
250,52	12790,33
251,00	13598,33
251,47	12586,67
251,95	14149,33
252,42	13494,67
252,90	12191,67
253,37	13475,33
253,85	12791,33
254,32	12433,00
254,80	12835,67
255,27	12875,67
255,75	13189,67
256,22	12162,33
256,70	12842,33
257,17	13083,33
257,65	13214,67
258,12	14786,67
258,60	12745,00
259,07	12309,67
259,55	12775,67
260,02	13022,67
260,50	13884,00
260,97	12521,00
261,45	12259,33
261,92	13438,33
262,40	12163,00
262,87	12739,00
263,35	12512,00
263,82	11843,33
264,30	13172,67
264,77	13357,33
265,25	12334,33
265,72	12875,33
266,19	12838,67
266,67	13299,33
267,14	12487,33
267,62	12566,00
268,09	12841,33
268,57	12977,67
269,04	11557,00
269,51	12136,33
269,99	12229,00
270,46	13072,00
270,94	13399,00
271,41	12497,00
271,89	12599,00
272,36	11852,67
272,83	11931,67
273,31	11414,33
273,78	12778,00
274,26	15289,00
274,73	13165,67
275,20	13150,33
275,68	12246,33
276,15	12510,67
276,63	12946,33
277,10	13157,67
277,57	11964,33
278,05	12431,33
278,52	11923,33
279,00	15649,67
279,47	12368,33
279,94	12265,00
280,42	15501,33
280,89	13459,33
281,36	15192,33
281,84	12337,00
282,31	13446,00
282,78	12548,00
283,26	12602,33
283,73	13075,00
284,21	12130,33
284,68	12008,33
285,15	13196,67
285,63	12598,33
286,10	12863,00
286,57	12924,00
287,05	11834,33
287,52	12978,00
287,99	13787,33
288,47	12529,00
288,94	13223,33
289,41	11588,00
289,89	13629,67
290,36	12098,67
290,83	12929,00
291,30	12356,00
291,78	13020,00
292,25	14329,67
292,72	12250,67
293,20	13401,33
293,67	12332,67
294,14	13102,00
294,62	13061,33
295,09	12176,67
295,56	12676,67
296,03	12885,67
296,51	14007,67
296,98	13897,33
297,45	13265,33
297,93	13033,33
298,40	13035,33
298,87	12430,00
299,34	13853,00
299,82	12611,00
300,29	13016,67
300,76	12396,33
301,23	13350,00
301,71	13355,33
302,18	13334,00
302,65	12145,67
303,12	13192,00
303,60	13496,33
304,07	12215,00
304,54	12470,00
305,01	12165,00
305,49	12842,00
305,96	13082,00
306,43	12953,67
306,90	13134,67
307,38	12447,00
307,85	12487,67
308,32	12988,00
308,79	12501,00
309,27	13353,00
309,74	13499,67
310,21	13018,33
310,68	12851,33
311,15	13102,67
311,63	12361,67
312,10	13431,33
312,57	12656,67
313,04	14099,00
313,51	12416,33
313,99	12516,33
314,46	12904,00
314,93	12426,67
315,40	12291,67
315,87	13468,00
316,34	13248,67
316,82	13053,67
317,29	13250,67
317,76	13019,00
318,23	14947,33
318,70	12663,33
319,17	12782,00
319,65	11968,33
320,12	13062,33
320,59	14053,33
321,06	13392,67
321,53	12474,00
322,00	11781,33
322,48	12094,33
322,95	13929,00
323,42	12642,33
323,89	14564,67
324,36	12004,00
324,83	12982,33
325,30	12673,33
325,78	12444,00
326,25	12526,00
326,72	12564,67
327,19	13136,67
327,66	13154,33
328,13	13156,00
328,60	12881,67
329,07	12596,67
329,54	12538,00
330,02	12499,67
330,49	12382,33
330,96	13403,67
331,43	13051,33
331,90	14015,33
332,37	12254,00
332,84	14245,67
333,31	13351,00
333,78	13145,67
334,25	13746,33
334,72	12942,67
335,20	13149,00
335,67	15507,67
336,14	12111,00
336,61	12672,00
337,08	12632,33
337,55	13035,33
338,02	12591,67
338,49	12587,67
338,96	13923,00
339,43	13491,00
339,90	12149,33
340,37	12307,33
340,84	12191,00
341,31	13144,33
341,78	13501,67
342,25	12484,00
342,72	12981,00
343,19	13359,67
343,67	13001,67
344,14	12620,67
344,61	12880,00
345,08	12298,67
345,55	12893,00
346,02	13272,00
346,49	12438,33
346,96	12291,67
347,43	13992,67
347,90	12430,33
348,37	13597,67
348,84	12994,33
349,31	11941,67
349,78	12927,67
350,25	13336,33
350,72	12990,00
351,19	12308,00
351,66	13216,00
352,13	14222,00
352,60	13096,33
353,07	12771,00
353,54	13030,33
354,01	13212,33
354,48	13251,00
354,94	13422,67
355,41	13089,67
355,88	14053,00
356,35	12548,00
356,82	14105,33
357,29	12553,33
357,76	14698,33
358,23	13601,67
358,70	12249,33
359,17	12522,67
359,64	12777,67
360,11	12902,33
360,58	13989,67
361,05	14367,33
361,52	13249,33
361,99	13498,33
362,46	13713,33
362,93	13690,33
363,39	13848,33
363,86	15860,67
364,33	14726,00
364,80	14063,00
365,27	15220,67
365,74	14745,00
366,21	14891,67
366,68	16195,00
367,15	16524,67
367,62	17257,33
368,09	17198,67
368,55	18344,67
369,02	20586,67
369,49	20502,33
369,96	23199,67
370,43	24513,00
370,90	25599,33
371,37	27175,33
371,84	29253,67
372,31	30183,33
372,77	31551,00
373,24	33968,67
373,71	35798,00
374,18	35940,00
374,65	36815,33
375,12	37698,00
375,59	36991,00
376,05	39144,00
376,52	38178,00
376,99	37208,00
377,46	36295,33
377,93	35783,67
378,40	34484,67
378,86	33066,67
379,33	32124,00
379,80	31062,33
380,27	30669,33
380,74	30089,67
381,21	27991,67
381,67	27849,33
382,14	26866,00
382,61	24106,67
383,08	24394,33
383,55	23316,00
384,02	23685,33
384,48	22498,33
384,95	25860,00
385,42	21381,33
385,89	20379,00
386,36	20030,00
386,82	20784,33
387,29	18667,33
387,76	18095,67
388,23	19166,00
388,69	18394,00
389,16	18606,33
389,63	16881,33
390,10	17385,33
390,57	16830,33
391,03	16784,33
391,50	16400,67
391,97	15924,67
392,44	15980,33
392,90	15318,33
393,37	15162,33
393,84	17122,00
394,31	15038,33
394,77	15729,00
395,24	14247,00
395,71	15148,67
396,18	18132,67
396,64	13669,33
397,11	14657,33
397,58	14888,67
398,05	13525,33
398,51	14068,67
398,98	13629,33
399,45	13311,67
399,92	14626,00
400,38	13150,00
400,85	13635,33
401,32	13383,00
401,78	13920,00
402,25	13699,67
402,72	13579,33
403,18	12755,67
403,65	14493,67
404,12	13073,00
404,59	14219,00
405,05	14633,00
405,52	14076,67
405,99	12642,33
406,45	13944,67
406,92	13534,00
407,39	14516,67
407,85	13114,00
408,32	13303,00
408,79	13547,33
409,25	12311,33
409,72	14007,00
410,19	12394,33
410,65	13884,67
411,12	12609,67
411,59	13891,33
412,05	12320,00
412,52	11962,00
412,99	13345,67
413,45	12700,67
413,92	13337,00
414,39	13414,00
414,85	14247,67
415,32	12866,33
415,78	14231,67
416,25	13137,67
416,72	12912,67
417,18	14296,33
417,65	13235,00
418,12	12890,33
418,58	13077,00
419,05	13016,33
419,51	13516,33
419,98	12420,67
420,45	13587,00
420,91	12224,00
421,38	12754,67
421,84	12524,67
422,31	13280,33
422,78	12602,67
423,24	12789,67
423,71	13115,33
424,17	13445,00
424,64	12754,67
425,11	13448,33
425,57	12858,00
426,04	13781,00
426,50	12607,67
426,97	13741,00
427,43	13382,33
427,90	13493,33
428,37	12205,67
428,83	13607,67
429,30	13203,33
429,76	12763,00
430,23	13096,67
430,69	15401,33
431,16	12075,67
431,62	12737,33
432,09	14021,00
432,55	13444,00
433,02	12702,33
433,48	12433,33
433,95	12809,67
434,42	12701,67
434,88	13405,00
435,35	12181,33
435,81	13465,33
436,28	12791,33
436,74	12094,67
437,21	13460,67
437,67	13083,67
438,14	12995,33
438,60	12505,33
439,07	12730,33
439,53	15992,33
440,00	13135,33
440,46	13447,00
440,93	13705,67
441,39	12289,67
441,86	12629,67
442,32	14775,33
442,79	12295,33
443,25	13050,00
443,72	12990,67
444,18	12115,33
444,64	14041,00
445,11	13235,33
445,57	12992,67
446,04	12885,67
446,50	13085,33
446,97	12728,00
447,43	12879,00
447,90	12464,00
448,36	12397,00
448,83	13241,33
449,29	13202,33
449,75	12753,00
450,22	12320,00
450,68	12228,00
451,15	12360,67
451,61	12986,00
452,08	13408,67
452,54	12293,00
453,00	13692,00
453,47	12732,67
453,93	12601,67
454,40	12920,33
454,86	13296,00
455,32	12542,00
455,79	12859,67
456,25	13450,67
456,72	12423,67
457,18	13607,67
457,64	12695,00
458,11	12715,67
458,57	12100,67
459,04	12930,67
459,50	12660,33
459,96	12962,67
460,43	12533,00
460,89	12172,33
461,36	13891,67
461,82	13321,67
462,28	12240,33
462,75	11964,33
463,21	13616,67
463,67	12532,00
464,14	12922,67
464,60	12870,67
465,06	12110,67
465,53	12448,00
465,99	13483,00
466,45	12723,67
466,92	13168,67
467,38	13166,67
467,84	12582,00
468,31	12911,67
468,77	13048,33
469,23	12682,67
469,70	12175,33
470,16	12986,00
470,62	12857,00
471,09	12412,67
471,55	12585,00
472,01	12277,33
472,48	12402,33
472,94	12532,33
473,40	13747,33
473,87	12469,00
474,33	12287,00
474,79	12673,00
475,25	12004,00
475,72	12878,33
476,18	12675,00
476,64	12894,67
477,11	12609,33
477,57	12736,00
478,03	13801,33
478,49	12829,67
478,96	13400,67
479,42	12244,00
479,88	13840,33
480,35	13069,00
480,81	12628,33
481,27	12207,67
481,73	12585,33
482,20	12741,67
482,66	11997,33
483,12	12473,67
483,58	11689,33
484,05	12425,00
484,51	13688,67
484,97	12855,67
485,43	12583,67
485,89	11636,67
486,36	12433,33
486,82	11657,67
487,28	12875,67
487,74	11822,67
488,21	11701,67
488,67	12095,33
489,13	12700,33
489,59	12587,67
490,05	13365,33
490,52	11864,00
490,98	12667,67
491,44	11772,00
491,90	12026,67
492,36	11550,67
492,83	13318,33
493,29	12651,33
493,75	12682,00
494,21	11908,67
494,67	12329,00
495,14	12190,67
495,60	12003,67
496,06	12968,67
496,52	12230,67
496,98	12413,33
497,44	13869,67
497,91	13258,67
498,37	12120,00
498,83	12662,00
499,29	12255,00
499,75	14342,33
500,21	12592,33
500,67	12098,67
501,14	12409,33
501,60	12239,67
502,06	12973,67
502,52	12418,00
502,98	12430,33
503,44	12508,33
503,90	12879,33
504,37	12163,67
504,83	12812,00
505,29	12739,00
505,75	12036,33
506,21	12405,33
506,67	13108,00
507,13	12381,67
507,59	13019,00
508,05	12790,00
508,51	12059,33
508,98	12160,33
509,44	11587,33
509,90	12203,00
510,36	12428,67
510,82	12063,67
511,28	13498,00
511,74	13390,00
512,20	11957,67
512,66	11546,33
513,12	11952,00
513,58	12773,67
514,04	11360,67
514,51	13135,00
514,97	13761,33
515,43	11564,00
515,89	12677,00
516,35	13280,00
516,81	13111,33
517,27	14427,67
517,73	12764,67
518,19	12620,33
518,65	15189,33
519,11	12388,00
519,57	12103,67
520,03	11701,33
520,49	11951,00
520,95	12694,00
521,41	12856,00
521,87	13084,00
522,33	12532,00
522,79	11696,33
523,25	13748,33
523,71	13168,67
524,17	12304,00
524,63	13745,33
525,09	12854,00
525,55	12946,00
526,01	13454,00
526,47	12693,33
526,93	12568,67
527,39	12097,00
527,85	12350,00
528,31	13040,67
528,77	12932,00
529,23	12383,00
529,69	11918,67
530,15	13057,33
530,61	12957,33
531,07	11679,67
531,53	13273,00
531,99	12688,67
532,45	12555,33
532,91	12505,00
533,37	12782,00
533,83	12323,67
534,29	11761,67
534,75	12440,00
535,21	12173,00
535,67	12714,67
536,12	12165,00
536,58	12830,67
537,04	11856,33
537,50	12978,67
537,96	12527,67
538,42	12513,67
538,88	13799,33
539,34	12980,67
539,80	16703,33
540,26	11714,67
540,72	13898,33
541,18	12735,67
541,63	11820,00
542,09	12892,00
542,55	12810,67
543,01	12253,00
543,47	14699,67
543,93	11882,67
544,39	13988,00
544,85	13143,67
545,31	12427,00
545,76	12202,67
546,22	13236,33
546,68	12592,67
547,14	12791,67
547,60	13101,33
548,06	12748,33
548,52	12345,33
548,98	12335,33
549,43	11910,00
549,89	14206,00
550,35	12296,33
550,81	11779,67
551,27	12834,00
551,73	12653,00
552,19	13862,33
552,64	12736,33
553,10	12065,33
553,56	12900,00
554,02	12347,33
554,48	11851,33
554,93	12807,67
555,39	12628,67
555,85	13908,33
556,31	12630,67
556,77	13507,00
557,23	11547,33
557,68	12765,33
558,14	14172,00
558,60	12227,33
559,06	12479,67
559,52	12084,00
559,97	11974,00
560,43	12006,67
560,89	12557,00
561,35	12331,00
561,81	12537,33
562,26	12200,67
562,72	12023,67
563,18	12598,67
563,64	13457,33
564,09	11999,00
564,55	12697,67
565,01	12345,67
565,47	12258,67
565,92	12714,33
566,38	13447,67
566,84	12381,33
567,30	12091,00
567,75	12559,00
568,21	13262,67
568,67	12205,67
569,13	12486,33
569,58	13093,67
570,04	12627,00
570,50	12502,33
570,96	13028,00
571,41	12967,00
571,87	12528,00
572,33	12653,00
572,78	12778,00
573,24	12105,67
573,70	12244,00
574,16	12510,00
574,61	13563,33
575,07	13186,33
575,53	11883,33
575,98	12758,33
576,44	11338,33
576,90	13418,33
577,36	12283,67
577,81	12272,00
578,27	11718,33
578,73	13499,33
579,18	12353,67
579,64	12135,00
580,10	12680,33
580,55	12745,00
581,01	12540,67
581,47	12533,67
581,92	12694,33
582,38	12331,33
582,84	11782,00
583,29	12567,67
583,75	12744,00
584,21	12359,00
584,66	13025,67
585,12	12074,33
585,57	14497,67
586,03	12440,00
586,49	12433,00
586,94	12461,67
587,40	12478,67
587,86	13256,00
588,31	11823,67
588,77	12970,67
589,22	12418,67
589,68	12049,67
590,14	12791,33
590,59	13061,67
591,05	12238,33
591,51	11684,00
591,96	13534,33
592,42	12228,33
592,87	12735,67
593,33	12515,67
593,78	13182,00
594,24	12492,67
594,70	12471,00
595,15	13553,33
595,61	12310,00
596,06	11931,00
596,52	13698,67
596,98	13073,00
597,43	13420,00
597,89	12591,00
598,34	11661,33
598,80	12503,67
599,25	13506,00
599,71	12085,33
600,16	12877,00
600,62	13466,33
601,08	12834,00
601,53	13176,00
601,99	11552,33
602,44	14785,00
602,90	12299,33
603,35	12561,33
603,81	11661,33
604,26	11474,33
604,72	12936,00
605,17	12477,33
605,63	12909,67
606,08	12578,33
606,54	11586,33
606,99	12592,67
607,45	12260,33
607,90	12554,33
608,36	13057,33
608,81	12512,33
609,27	14431,33
609,72	13136,33
610,18	12580,67
610,63	12203,00
611,09	12693,33
611,54	11769,33
612,00	13864,00
612,45	12972,67
612,91	12763,00
613,36	15039,33
613,82	11756,33
614,27	11709,67
614,73	11663,00
615,18	11786,00
615,64	12453,00
616,09	12511,33
616,54	11930,67
617,00	12354,00
617,45	12544,33
617,91	13087,33
618,36	11951,67
618,82	12254,00
619,27	12270,67
619,72	13110,00
620,18	12241,67
620,63	13169,00
621,09	13269,33
621,54	12422,00
622,00	13182,67
622,45	13592,00
622,90	13230,00
623,36	12164,67
623,81	12001,00
624,27	13340,67
624,72	11598,67
625,17	12364,33
625,63	12613,00
626,08	12048,67
626,54	12471,33
626,99	12780,00
627,44	11830,33
627,90	13017,67
628,35	13108,33
628,81	11434,67
629,26	12355,67
629,71	12732,67
630,17	12042,67
630,62	12831,67
631,07	12401,33
631,53	13028,67
631,98	12762,67
632,43	13313,33
632,89	12155,67
633,34	12173,33
633,79	12051,00
634,25	12056,00
634,70	11844,00
635,15	12239,67
635,61	12034,00
636,06	11617,33
636,51	12333,67
636,97	12317,67
637,42	11926,33
637,87	13035,33
638,33	13191,33
638,78	12119,00
639,23	12463,33
639,69	11749,00
640,14	11465,33
640,59	12704,67
641,05	13247,67
641,50	11597,00
641,95	12242,67
642,40	12244,33
642,86	11543,67
643,31	12148,33
643,76	12936,00
644,22	12002,33
644,67	11803,67
645,12	12234,33
645,57	11812,00
646,03	12556,67
646,48	12512,00
646,93	12704,67
647,38	12930,33
647,84	12669,33
648,29	12772,67
648,74	11752,67
649,19	13377,67
649,65	12756,67
650,10	15697,00
650,55	11859,00
651,00	11905,33
651,46	11996,00
651,91	12547,00
652,36	11773,00
652,81	12336,33
653,27	12152,33
653,72	12024,00
654,17	12322,00
654,62	12671,33
655,07	12130,67
655,53	11738,33
655,98	12960,67
656,43	11879,00
656,88	12335,33
657,33	12774,33
657,79	12840,67
658,24	11891,33
658,69	12552,33
659,14	11800,67
659,59	15903,33
660,05	12112,00
660,50	13230,33
660,95	12326,67
661,40	11894,67
661,85	12222,33
662,30	11802,67
662,76	11420,33
663,21	12646,00
663,66	12152,00
664,11	12047,67
664,56	12312,33
665,01	11684,33
665,47	12465,33
665,92	11698,00
666,37	12555,33
666,82	12376,00
667,27	14363,67
667,72	13387,00
668,17	11867,67
668,62	12734,33
669,08	11821,33
669,53	14182,67
669,98	11313,33
670,43	11819,67
670,88	13287,67
671,33	12455,00
671,78	13766,00
672,23	14384,33
672,69	12353,00
673,14	12438,00
673,59	13277,67
674,04	15041,67
674,49	12650,00
674,94	12606,33
675,39	11522,00
675,84	11594,00
676,29	12362,00
676,74	12202,00
677,19	12186,00
677,64	12114,33
678,10	14555,67
678,55	12094,00
679,00	12174,33
679,45	12483,33
679,90	12142,33
680,35	12528,67
680,80	12348,33
681,25	11181,33
681,70	11109,00
682,15	12171,67
682,60	12346,33
683,05	12919,00
683,50	12754,00
683,95	12469,33
684,40	13335,00
684,85	12785,67
685,30	12417,33
685,75	12723,33
686,20	12247,00
686,65	11695,33
687,10	12455,00
687,55	11956,33
688,00	12507,33
688,45	12236,67
688,90	14729,33
689,35	12890,33
689,80	11461,67
690,25	12284,00
690,70	12247,33
691,15	11527,33
691,60	12284,00
692,05	11513,67
692,50	12428,00
692,95	12192,00
693,40	12805,67
693,85	12736,00
694,30	12319,33
694,75	12412,67
695,20	16021,67
695,65	12471,33
696,10	12487,33
696,55	13948,33
697,00	12268,00
697,45	12001,00
697,90	12663,67
698,35	11914,33
698,80	12921,67
699,24	12948,00
699,69	12011,67
700,14	12130,67
700,59	12813,33
701,04	12946,33
701,49	15593,67
701,94	11626,67
702,39	13613,67
702,84	12071,33
703,29	12067,67
703,74	12554,00
704,19	12222,33
704,63	12051,33
705,08	13360,00
705,53	13197,00
705,98	13103,00
706,43	11644,00
706,88	12921,33
707,33	12349,00
707,78	12220,00
708,22	12585,67
708,67	13092,33
709,12	12455,67
709,57	12157,00
710,02	12303,00
710,47	12356,67
710,92	11945,33
711,37	12848,00
711,81	12466,33
712,26	12492,67
712,71	11863,00
713,16	13933,33
713,61	12290,00
714,06	12490,67
714,50	13524,67
714,95	13050,33
715,40	12293,33
715,85	12458,00
716,30	12138,67
716,75	12090,67
717,19	11645,00
717,64	11540,33
718,09	12787,33
718,54	13775,67
718,99	11728,00
719,43	11688,33
719,88	12408,00
720,33	12234,33
720,78	12144,33
721,23	12595,67
721,67	12007,00
722,12	12714,33
722,57	12302,33
723,02	11576,33
723,47	11457,00
723,91	12459,67
724,36	11364,33
724,81	12645,67
725,26	11408,67
725,70	12233,33
726,15	12172,33
726,60	12415,00
727,05	13719,67
727,49	11722,00
727,94	13429,67
728,39	12656,33
728,84	12091,67
729,28	13339,33
729,73	11950,00
730,18	13040,67
730,63	11651,00
731,07	12513,00
731,52	12764,67
731,97	12514,00
732,41	12516,00
732,86	11763,33
733,31	12996,33
733,76	12530,33
734,20	11899,33
734,65	12808,00
735,10	12800,00
735,54	12385,00
735,99	14706,33
736,44	11880,67
736,89	12475,67
737,33	12811,00
737,78	12994,00
738,23	12428,33
738,67	12110,00
739,12	12407,67
739,57	11566,67
740,01	13300,33
740,46	12657,00
740,91	11815,00
741,35	12756,33
741,80	12804,67
742,25	12347,67
742,69	12506,33
743,14	11766,00
743,59	11769,33
744,03	12350,33
744,48	13094,67
744,92	13049,00
745,37	12388,33
745,82	13080,67
746,26	13593,67
746,71	11087,00
747,16	11806,00
747,60	11562,33
748,05	12731,67
748,49	12252,33
748,94	12014,33
749,39	12571,00
749,83	14675,00
750,28	12433,33
750,73	12187,33
751,17	11637,00
751,62	12113,00
752,06	12069,67
752,51	12358,00
752,95	13961,00
753,40	12029,67
753,85	12186,33
754,29	11512,33
754,74	12033,00
755,18	11823,33
755,63	12181,33
756,07	12420,00
756,52	13153,00
756,97	12112,00
757,41	13324,67
757,86	12367,33
758,30	12271,00
758,75	12238,33
759,19	12120,00
759,64	11655,00
760,08	12258,33
760,53	12659,00
760,98	12356,67
761,42	12753,67
761,87	13355,33
762,31	12188,67
762,76	11551,00
763,20	12245,33
763,65	13002,67
764,09	12259,00
764,54	11613,33
764,98	11926,33
765,43	12611,67
765,87	11745,67
766,32	11633,00
766,76	11949,00
767,21	12327,67
767,65	12432,00
768,10	12560,33
768,54	12881,67
768,99	12300,00
769,43	13855,00
769,88	11737,33
770,32	12177,67
770,77	11835,00
771,21	11532,00
771,65	12752,67
772,10	12414,33
772,54	12522,33
772,99	11465,00
773,43	12079,00
773,88	12096,00
774,32	11159,67
774,77	12270,33
775,21	11798,00
775,65	12585,33
776,10	12313,00
776,54	11678,67
776,99	12120,33
777,43	12112,00
777,88	12727,67
778,32	12787,00
778,76	12013,67
779,21	12403,00
779,65	14718,33
780,10	13591,00
780,54	12402,67
780,99	13099,67
781,43	12705,00
781,87	11831,67
782,32	12557,00
782,76	11633,00
783,20	12062,00
783,65	12851,67
784,09	13012,67
784,54	12295,67
784,98	12070,00
785,42	12131,67
785,87	11769,33
786,31	12937,33
786,75	12947,33
787,20	13238,33
787,64	11730,33
788,09	11909,67
788,53	12562,33
788,97	11818,00
789,42	12175,00
789,86	11960,33
790,30	12356,00
790,75	11728,67
791,19	11987,33
791,63	13168,00
792,08	12072,00
792,52	12391,00
792,96	11981,33
793,41	15811,67
793,85	13123,67
794,29	12450,00
794,74	12453,33
795,18	12322,00
795,62	11687,33
796,06	12643,00
796,51	12143,67
796,95	12384,33
797,39	11905,00
797,84	11725,00
798,28	12269,33
798,72	13213,67
799,16	12466,00
799,61	11763,33
800,05	13609,00
800,49	12675,00
800,94	11857,00
801,38	12599,00
801,82	12472,00
802,26	11775,00
802,71	13175,67
803,15	13654,00
803,59	12812,00
804,03	12431,67
804,48	12326,00
804,92	11959,33
805,36	13688,33
805,80	14134,67
806,25	13789,00
806,69	12797,00
807,13	14068,33
807,57	12092,67
808,01	12481,67
808,46	11643,67
808,90	12693,33
809,34	12371,00
809,78	12097,00
810,23	11744,33
810,67	12695,67
811,11	13478,00
811,55	15120,00
811,99	12081,33
812,44	11934,00
812,88	12813,00
813,32	13801,67
813,76	13104,33
814,20	12381,67
814,64	12850,33
815,09	12838,00
815,53	12509,33
815,97	12006,67
816,41	11727,67
816,85	11994,33
817,29	12884,00
817,74	12222,33
818,18	13125,00
818,62	11938,00
819,06	12823,67
819,50	13305,00
819,94	12129,67
820,39	12689,67
820,83	12130,00
821,27	12390,33
821,71	11812,00
822,15	13601,67
822,59	11757,00
823,03	12469,00
823,47	12667,67
823,92	11741,33
824,36	12445,33
824,80	12341,67
825,24	12557,33
825,68	12555,33
826,12	11825,67
826,56	12162,00
827,00	11161,67
827,44	12397,67
827,88	12945,00
828,33	13325,67
828,77	11919,00
829,21	12985,67
829,65	12519,00
830,09	11948,67
830,53	13771,00
830,97	12056,00
831,41	14231,00
831,85	13212,67
832,29	12848,67
832,73	11562,33
833,17	12343,33
833,61	12207,67
834,05	13063,67
834,49	12826,33
834,93	12269,67
835,37	12018,67
835,82	13093,00
836,26	12201,33
836,70	12506,67
837,14	12062,67
837,58	13049,00
838,02	11989,33
838,46	11944,33
838,90	12512,67
839,34	12338,67
839,78	13689,33
840,22	14149,00
840,66	12488,67
841,10	13388,00
841,54	11351,33
841,98	11990,00
842,42	11528,00
842,86	12146,33
843,30	12847,00
843,74	12439,33
844,18	12918,00
844,62	12435,00
845,06	11807,00
845,50	12842,67
845,94	12295,00
846,37	12880,33
846,81	11959,67
847,25	11849,67
847,69	12352,33
848,13	11843,67
848,57	12139,67
849,01	12081,00
849,45	12721,33
849,89	13308,67
850,33	12875,67
850,77	12300,67
851,21	12995,67
851,65	11860,67
852,09	12545,00
852,53	13263,00
852,97	12000,00
853,40	11961,33
853,84	12892,33
854,28	11572,33
854,72	13028,33
855,16	11480,00
855,60	11930,33
856,04	13168,00
856,48	13532,33
856,92	12387,67
857,36	12738,33
857,79	12490,00
858,23	11780,67
858,67	13320,00
859,11	11232,67
859,55	11893,33
859,99	12084,67
860,43	12257,00
860,87	12418,67
861,30	13022,00
861,74	11965,00
862,18	12152,00
862,62	12464,33
863,06	11934,67
863,50	12125,33
863,94	12933,67
864,37	11861,00
864,81	12284,33
865,25	12267,00
865,69	11502,00
866,13	12280,67
866,57	11354,00
867,00	12822,67
867,44	11752,33
867,88	12531,00
868,32	12141,67
868,76	11876,33
869,19	12586,67
869,63	12293,33
870,07	13393,00
870,51	14497,33
870,95	11539,67
871,38	12274,33
871,82	12377,33
872,26	11817,67
872,70	12540,00
873,14	12754,33
873,57	12278,67
874,01	13077,67
874,45	12935,67
874,89	12178,33
875,32	11569,67
875,76	13194,00
876,20	11221,00
876,64	12595,00
877,07	12223,00
877,51	12236,33
877,95	12305,33
878,39	12214,67
878,82	12604,33
879,26	12203,00
879,70	13541,00
880,14	11792,00
880,57	11736,67
881,01	12036,67
881,45	12513,67
881,89	12996,67
882,32	12211,33
882,76	12167,00
883,20	12087,00
883,63	12207,00
884,07	11669,67
884,51	12784,00
884,94	12357,33
885,38	12759,67
885,82	12946,00
886,26	12032,00
886,69	11853,00
887,13	13697,00
887,57	11623,67
888,00	11800,67
888,44	12214,67
888,88	12029,33
889,31	14671,00
889,75	11525,33
890,19	13079,67
890,62	11946,33
891,06	12670,00
891,50	12505,67
891,93	11493,33
892,37	11872,33
892,81	12050,00
893,24	11669,33
893,68	11992,00
894,11	12475,00
894,55	12076,33
894,99	12835,67
895,42	11983,33
895,86	11810,00
896,30	12455,33
896,73	12782,33
897,17	11863,33
897,60	11698,00
898,04	11745,00
898,48	12429,67
898,91	13193,00
899,35	11846,67
899,78	11882,67
900,22	12020,33
900,66	12876,00
901,09	12744,33
901,53	11962,67
901,96	13821,00
902,40	13954,33
902,84	11840,33
903,27	12130,00
903,71	13656,67
904,14	11766,33
904,58	12587,33
905,01	11933,00
905,45	12052,33
905,88	11632,33
906,32	13299,00
906,76	12314,33
907,19	13022,00
907,63	12460,33
908,06	12113,33
908,50	12767,33
908,93	13553,00
909,37	12199,00
909,80	11542,00
910,24	12445,67
910,67	12378,00
911,11	12094,67
911,54	11923,00
911,98	12131,33
912,41	12438,00
912,85	12095,33
913,28	12728,33
913,72	12631,33
914,15	12211,33
914,59	11570,33
915,02	11639,00
915,46	11984,00
915,89	11850,33
916,33	13004,33
916,76	11952,67
917,20	13164,00
917,63	12035,33
918,07	12957,67
918,50	11802,67
918,94	12239,00
919,37	12088,00
919,81	12727,67
920,24	12860,67
920,67	12328,00
921,11	13676,67
921,54	12650,00
921,98	12049,67
922,41	11626,67
922,85	11597,00
923,28	12486,00
923,72	13514,67
924,15	12820,00
924,58	11372,67
925,02	12683,00
925,45	11663,67
925,89	12744,33
926,32	14134,00
926,75	12102,00
927,19	12742,33
927,62	11511,33
928,06	14076,67
928,49	12262,33
928,92	11528,67
929,36	13170,00
929,79	12011,33
930,23	12616,00
930,66	12980,33
931,09	11932,67
931,53	12641,00
931,96	11193,33
932,39	13672,33
932,83	12993,67
933,26	14386,00
933,70	12122,67
934,13	13165,00
934,56	13001,00
935,00	12862,33
935,43	12519,33
935,86	11681,67
936,30	12145,33
936,73	11861,67
937,16	12585,00
937,60	11608,00
938,03	12778,67
938,46	11836,67
938,90	12066,00
939,33	12830,00
939,76	11715,33
940,19	12309,33
940,63	12955,67
941,06	13973,67
941,49	12040,00
941,93	13075,33
942,36	11701,67
942,79	12044,67
943,23	12816,67
943,66	11589,33
944,09	11542,67
944,52	12734,67
944,96	12046,67
945,39	12772,33
945,82	12277,67
946,26	12425,33
946,69	12495,00
947,12	13258,67
947,55	12190,00
947,99	12353,33
948,42	12776,33
948,85	11457,67
949,28	11573,00
949,72	11606,67
950,15	14337,67
950,58	13273,00
951,01	12183,33
951,45	11907,00
951,88	12605,33
952,31	11531,00
952,74	12895,67
953,17	11979,33
953,61	13750,67
954,04	11525,33
954,47	11825,33
954,90	11994,00
955,33	11795,33
955,77	12043,00
956,20	12732,33
956,63	11717,67
957,06	12755,33
957,49	14749,33
957,93	11606,33
958,36	12655,67
958,79	12434,00
959,22	11948,00
959,65	11901,33
960,08	11990,00
960,52	11164,33
960,95	12112,00
961,38	12672,33
961,81	12734,33
962,24	13011,67
962,67	12733,00
963,11	11916,33
963,54	12331,33
963,97	11927,00
964,40	12230,33
964,83	12172,00
965,26	11844,00
965,69	12913,67
966,13	11935,67
966,56	12123,00
966,99	12713,00
967,42	11900,00
967,85	11906,33
968,28	13140,00
968,71	15688,00
969,14	12854,00
969,57	12213,00
970,01	12594,33
970,44	11729,00
970,87	11941,67
971,30	12666,00
971,73	11984,33
972,16	12288,67
972,59	11556,00
973,02	11777,00
973,45	12217,33
973,88	12632,67
974,31	12091,00
974,74	12730,67
975,17	12357,33
975,61	11929,67
976,04	11934,00
976,47	11814,00
976,90	12361,33
977,33	11649,00
977,76	12721,33
978,19	12399,00
978,62	12046,67
979,05	12080,00
979,48	12088,67
979,91	12944,00
980,34	12719,00
980,77	11851,33
981,20	12493,00
981,63	13021,33
982,06	12232,67
982,49	12218,00
982,92	12034,00
983,35	12043,00
983,78	11820,67
984,21	12902,00
984,64	12930,33
985,07	11486,33
985,50	11169,67
985,93	12076,67
986,36	12706,33
986,79	12053,33
987,22	11750,33
987,65	12545,67
988,08	12207,00
988,51	12328,33
988,94	12208,00
989,37	12411,67
989,80	12251,67
990,23	12135,00
990,66	12492,67
991,09	12310,67
991,51	12418,33
991,94	13681,33
992,37	11965,33
992,80	11750,67
993,23	12269,67
993,66	11707,00
994,09	11928,33
994,52	12647,67
994,95	12882,67
995,38	12373,67
995,81	12175,33
996,24	11427,33
996,67	11490,33
997,09	11148,67
997,52	13086,67
997,95	12863,67
998,38	11962,00
998,81	12519,00
999,24	11660,67
999,67	13454,33
1000,10	12248,67
1000,53	12316,33
1000,95	13366,00
1001,38	11681,33
1001,81	12405,67
1002,24	12731,00
1002,67	12259,67
1003,10	12424,33
1003,53	12354,33
1003,95	12712,67
1004,38	11758,33
1004,81	12433,33
1005,24	12314,33
1005,67	13385,67
1006,10	12233,33
1006,52	11533,67
1006,95	12474,33
1007,38	12223,67
1007,81	11803,67
1008,24	11436,00
1008,67	12045,00
1009,09	11921,00
1009,52	15188,33
1009,95	13068,67
1010,38	12985,00
1010,81	12619,33
1011,23	12696,00
1011,66	13063,67
1012,09	12131,33
1012,52	12809,00
1012,95	12273,33
1013,37	12584,33
1013,80	12619,67
1014,23	11609,67
1014,66	13385,67
1015,08	11280,33
1015,51	12895,00
1015,94	11904,67
1016,37	12365,67
1016,80	11589,00
1017,22	12620,67
1017,65	12010,00
1018,08	12128,33
1018,51	12234,33
1018,93	11272,67
1019,36	14638,67
1019,79	13135,00
1020,21	12772,00
1020,64	12009,67
1021,07	12242,67
1021,50	12580,00
1021,92	12524,33
1022,35	12643,67
1022,78	12190,33
1023,21	15270,67
1023,63	13172,33
1024,06	13044,00
1024,49	12707,67
1024,91	12442,33
1025,34	12549,67
1025,77	12753,00
1026,19	11713,67
1026,62	11814,00
1027,05	14272,67
1027,47	12808,67
1027,90	12577,00
1028,33	12360,67
1028,75	12555,67
1029,18	11913,00
1029,61	14170,67
1030,03	12421,33
1030,46	12270,00
1030,89	12608,00
1031,31	13532,00
1031,74	11590,00
1032,17	12320,33
1032,59	12881,00
1033,02	12005,33
1033,45	13064,33
1033,87	11899,33
1034,30	11824,67
1034,73	12666,67
1035,15	12927,67
1035,58	11963,67
1036,00	13580,33
1036,43	11910,00
1036,86	12062,00
1037,28	12548,33
1037,71	11462,33
1038,13	12948,33
1038,56	13015,67
1038,99	12807,00
1039,41	13248,00
1039,84	13616,00
1040,26	12184,33
1040,69	12209,00
1041,11	12547,33
1041,54	12003,33
1041,97	13438,67
1042,39	13356,67
1042,82	12783,33
1043,24	13043,33
1043,67	12255,00
1044,09	13003,67
1044,52	11871,67
1044,95	12330,67
1045,37	12022,33
1045,80	11618,33
1046,22	12390,67
1046,65	12712,67
1047,07	11747,67
1047,50	12649,00
1047,92	12973,33
1048,35	11751,33
1048,77	12998,67
1049,20	12810,67
1049,62	12992,33
1050,05	12232,00
1050,47	12192,33
1050,90	12686,67
1051,32	12863,00
1051,75	13391,67
1052,17	13307,00
1052,60	12530,33
1053,02	12717,33
1053,45	11081,00
1053,87	12478,00
1054,30	11298,00
1054,72	12163,67
1055,15	11869,33
1055,57	12601,67
1056,00	12825,00
1056,42	13872,33
1056,85	13204,33
1057,27	13185,33
1057,70	12497,67
1058,12	15551,00
1058,54	11843,00
1058,97	12767,33
1059,39	12926,67
1059,82	12260,67
1060,24	12209,00
1060,67	11976,00
1061,09	13069,33
1061,51	12490,33
1061,94	12131,67
1062,36	13009,00
1062,79	13270,33
1063,21	12511,33
1063,64	12207,67
1064,06	11941,67
1064,48	12945,67
1064,91	12979,33
1065,33	12110,00
1065,76	11801,00
1066,18	11390,33
1066,60	13042,33
1067,03	12497,67
1067,45	12319,00
1067,87	12690,67
1068,30	12095,67
1068,72	13736,00
1069,15	12330,67
1069,57	12040,00
1069,99	11568,33
1070,42	13107,33
1070,84	13215,00
1071,26	13026,00
1071,69	12161,33
1072,11	12926,00
1072,53	12026,67
1072,96	11835,00
1073,38	11482,00
1073,80	12692,00
1074,23	12081,00
1074,65	11584,33
1075,07	12094,33
1075,50	12129,33
1075,92	12551,00
1076,34	11906,67
1076,77	11827,00
1077,19	12228,33
1077,61	13044,00
1078,04	12064,33
1078,46	12912,33
1078,88	13453,33
1079,30	11242,00
1079,73	12570,00
1080,15	11883,00
1080,57	12211,00
1081,00	12674,00
1081,42	12379,33
1081,84	12132,33
1082,26	12627,00
1082,69	12292,67
1083,11	12254,67
1083,53	12338,67
1083,95	12444,33
1084,38	13133,33
1084,80	12362,00
1085,22	12113,33
1085,64	13189,67
1086,07	11863,67
1086,49	12038,00
1086,91	12582,67
1087,33	11476,33
1087,76	12881,67
1088,18	25752,33
1088,60	12667,00
1089,02	11870,33
1089,45	12092,33
1089,87	12152,00
1090,29	13224,67
1090,71	12258,67
1091,13	11830,00
1091,56	12067,00
1091,98	12111,33
1092,40	11835,67
1092,82	12279,00
1093,24	11992,67
1093,66	12306,00
1094,09	12115,67
1094,51	12367,33
1094,93	12071,67
1095,35	12316,67
1095,77	11840,33
1096,19	12290,33
1096,62	12676,67
1097,04	11596,33
1097,46	12278,67
1097,88	12019,00
1098,30	12822,67
1098,72	12540,00
1099,15	12571,00
1099,57	12144,00
1099,99	12140,00
1100,41	11781,00
1100,83	12157,33
1101,25	11907,33
1101,67	12278,00
1102,09	11562,00
1102,52	12014,33
1102,94	12137,67
1103,36	12197,00
1103,78	12456,33
1104,20	11932,33
1104,62	13489,67
1105,04	11030,33
1105,46	12404,00
1105,88	12170,33
1106,30	11827,33
1106,73	12100,67
1107,15	10990,67
1107,57	11335,67
1107,99	13032,33
1108,41	11398,00
1108,83	12608,00
1109,25	12496,33
1109,67	12400,33
1110,09	11089,00
1110,51	11884,67
1110,93	11243,67
1111,35	11816,33
1111,77	11321,33
1112,19	11392,00
1112,61	11067,67
1113,03	11621,33
1113,45	11388,67
1113,87	11375,67
1114,29	11910,33
1114,71	12239,33
1115,13	11532,00
1115,55	11842,67
1115,98	11477,67
1116,40	12122,00
1116,82	12085,67
1117,24	11706,33
1117,66	11365,00
1118,08	1982,67
1118,50	2199,00
1118,91	2175,33
1119,33	2177,67
>>>>>End Processed Spectral Data<<<<<
