SpectraSuite Data File
++++++++++++++++++++++++++++++++++++
Date: Wed May 16 14:13:48 EEST 2012
User: OO Maya
Dark Spectrum Present: No
Reference Spectrum Present: No
Number of Sampled Component Spectra: 1
Spectrometers: MAYP11278
Integration Time (usec): 500000 (MAYP11278)
Spectra Averaged: 1 (MAYP11278)
Boxcar Smoothing: 0 (MAYP11278)
Correct for Electrical Dark: No (MAYP11278)
Strobe/Lamp Enabled: No (MAYP11278)
Correct for Detector Non-linearity: No (MAYP11278)
Correct for Stray Light: No (MAYP11278)
Number of Pixels in Processed Spectrum: 2068
>>>>>Begin Processed Spectral Data<<<<<
188,05	2293,00
188,53	2209,00
189,01	2181,00
189,49	2183,00
189,96	2871,00
190,44	2908,00
190,92	2890,00
191,40	2904,00
191,88	2985,00
192,36	2897,00
192,83	2912,00
193,31	2851,00
193,79	2919,00
194,27	2899,00
194,75	2919,00
195,23	2887,00
195,70	2962,00
196,18	2918,00
196,66	2926,00
197,14	3028,00
197,62	2887,00
198,09	2875,00
198,57	2889,00
199,05	2852,00
199,53	2929,00
200,01	2952,00
200,48	2887,00
200,96	2911,00
201,44	2964,00
201,92	2928,00
202,39	2945,00
202,87	2858,00
203,35	2928,00
203,83	2879,00
204,31	2940,00
204,78	2953,00
205,26	2897,00
205,74	2881,00
206,22	2960,00
206,69	2858,00
207,17	2910,00
207,65	3044,00
208,13	2935,00
208,60	2953,00
209,08	2925,00
209,56	2942,00
210,04	2936,00
210,51	2947,00
210,99	2898,00
211,47	2950,00
211,94	2923,00
212,42	2920,00
212,90	3007,00
213,38	2953,00
213,85	2920,00
214,33	3005,00
214,81	2941,00
215,29	2989,00
215,76	2942,00
216,24	2971,00
216,72	2948,00
217,19	2941,00
217,67	2878,00
218,15	2915,00
218,62	2988,00
219,10	2866,00
219,58	2909,00
220,05	2893,00
220,53	2932,00
221,01	2997,00
221,49	2931,00
221,96	2986,00
222,44	2880,00
222,92	2950,00
223,39	2905,00
223,87	2982,00
224,35	2927,00
224,82	2910,00
225,30	2889,00
225,78	2937,00
226,25	2877,00
226,73	2900,00
227,21	2950,00
227,68	2934,00
228,16	2943,00
228,63	2937,00
229,11	2947,00
229,59	2934,00
230,06	2934,00
230,54	2925,00
231,02	2936,00
231,49	2987,00
231,97	2937,00
232,45	2941,00
232,92	2886,00
233,40	2932,00
233,87	2930,00
234,35	3091,00
234,83	2936,00
235,30	2903,00
235,78	2903,00
236,25	2881,00
236,73	2949,00
237,21	3035,00
237,68	2921,00
238,16	2953,00
238,63	2929,00
239,11	2942,00
239,59	2956,00
240,06	2892,00
240,54	2965,00
241,01	2973,00
241,49	2951,00
241,96	2929,00
242,44	2976,00
242,92	2992,00
243,39	2881,00
243,87	2909,00
244,34	3008,00
244,82	3031,00
245,29	2894,00
245,77	2990,00
246,24	2957,00
246,72	2891,00
247,20	2947,00
247,67	2935,00
248,15	2946,00
248,62	2951,00
249,10	2851,00
249,57	2942,00
250,05	2957,00
250,52	2953,00
251,00	3021,00
251,47	2947,00
251,95	3010,00
252,42	3009,00
252,90	2941,00
253,37	2976,00
253,85	2931,00
254,32	2929,00
254,80	2927,00
255,27	2958,00
255,75	2985,00
256,22	2906,00
256,70	2936,00
257,17	2959,00
257,65	3004,00
258,12	3082,00
258,60	2943,00
259,07	2923,00
259,55	2962,00
260,02	2942,00
260,50	3016,00
260,97	2925,00
261,45	2922,00
261,92	3011,00
262,40	2896,00
262,87	2957,00
263,35	2938,00
263,82	2914,00
264,30	2990,00
264,77	2982,00
265,25	2929,00
265,72	2962,00
266,19	2957,00
266,67	2987,00
267,14	2921,00
267,62	2941,00
268,09	2952,00
268,57	2957,00
269,04	2881,00
269,51	2918,00
269,99	2917,00
270,46	3009,00
270,94	3002,00
271,41	2914,00
271,89	2949,00
272,36	2881,00
272,83	2886,00
273,31	2850,00
273,78	2942,00
274,26	3122,00
274,73	2966,00
275,20	2986,00
275,68	2933,00
276,15	2955,00
276,63	2965,00
277,10	2956,00
277,57	2895,00
278,05	2927,00
278,52	2895,00
279,00	3123,00
279,47	2895,00
279,94	2911,00
280,42	3125,00
280,89	3023,00
281,36	3126,00
281,84	2898,00
282,31	2993,00
282,78	2944,00
283,26	2965,00
283,73	2932,00
284,21	2901,00
284,68	2894,00
285,15	2994,00
285,63	2915,00
286,10	2982,00
286,57	2951,00
287,05	2888,00
287,52	2985,00
287,99	3008,00
288,47	2939,00
288,94	2935,00
289,41	2883,00
289,89	2986,00
290,36	2915,00
290,83	2937,00
291,30	2952,00
291,78	2992,00
292,25	3074,00
292,72	2935,00
293,20	2967,00
293,67	2922,00
294,14	2975,00
294,62	2975,00
295,09	2902,00
295,56	2933,00
296,03	2966,00
296,51	3038,00
296,98	3014,00
297,45	2986,00
297,93	2981,00
298,40	2968,00
298,87	2928,00
299,34	3017,00
299,82	2940,00
300,29	2969,00
300,76	2921,00
301,23	2992,00
301,71	3017,00
302,18	2991,00
302,65	2916,00
303,12	2984,00
303,60	2973,00
304,07	2919,00
304,54	2919,00
305,01	2899,00
305,49	2970,00
305,96	2989,00
306,43	2957,00
306,90	2984,00
307,38	2945,00
307,85	2929,00
308,32	2950,00
308,79	2943,00
309,27	2973,00
309,74	3007,00
310,21	2963,00
310,68	2946,00
311,15	2999,00
311,63	2935,00
312,10	2984,00
312,57	2941,00
313,04	3042,00
313,51	2906,00
313,99	2930,00
314,46	2964,00
314,93	2955,00
315,40	2927,00
315,87	3008,00
316,34	2971,00
316,82	2949,00
317,29	2953,00
317,76	2993,00
318,23	3126,00
318,70	2954,00
319,17	2981,00
319,65	2905,00
320,12	2997,00
320,59	3042,00
321,06	3032,00
321,53	2942,00
322,00	2901,00
322,48	2915,00
322,95	3056,00
323,42	2938,00
323,89	3053,00
324,36	2875,00
324,83	2951,00
325,30	2950,00
325,78	2913,00
326,25	2929,00
326,72	2948,00
327,19	2983,00
327,66	2979,00
328,13	2986,00
328,60	2979,00
329,07	2959,00
329,54	2955,00
330,02	2935,00
330,49	2928,00
330,96	2989,00
331,43	2980,00
331,90	3073,00
332,37	2940,00
332,84	3072,00
333,31	3001,00
333,78	2982,00
334,25	3047,00
334,72	2963,00
335,20	2977,00
335,67	3160,00
336,14	2918,00
336,61	2965,00
337,08	2943,00
337,55	3004,00
338,02	2951,00
338,49	2993,00
338,96	3055,00
339,43	3033,00
339,90	2945,00
340,37	2946,00
340,84	2942,00
341,31	3005,00
341,78	3020,00
342,25	2942,00
342,72	3026,00
343,19	3029,00
343,67	3009,00
344,14	2951,00
344,61	3015,00
345,08	2991,00
345,55	3007,00
346,02	3047,00
346,49	2990,00
346,96	2973,00
347,43	3123,00
347,90	3000,00
348,37	3114,00
348,84	3047,00
349,31	2983,00
349,78	3089,00
350,25	3083,00
350,72	3095,00
351,19	3090,00
351,66	3148,00
352,13	3228,00
352,60	3241,00
353,07	3223,00
353,54	3280,00
354,01	3313,00
354,48	3341,00
354,94	3421,00
355,41	3458,00
355,88	3638,00
356,35	3623,00
356,82	3813,00
357,29	3888,00
357,76	4166,00
358,23	4328,00
358,70	4381,00
359,17	4677,00
359,64	4923,00
360,11	5310,00
360,58	5729,00
361,05	6027,00
361,52	6558,00
361,99	7043,00
362,46	7661,00
362,93	8354,00
363,39	9269,00
363,86	10152,00
364,33	11094,00
364,80	12307,00
365,27	13909,00
365,74	15664,00
366,21	17843,00
366,68	20744,00
367,15	23749,00
367,62	27647,00
368,09	31933,00
368,55	36187,00
369,02	41074,00
369,49	45883,00
369,96	50714,00
370,43	54508,00
370,90	58258,00
371,37	61011,00
371,84	63224,00
372,31	64000,00
372,77	63897,00
373,24	62534,00
373,71	60534,00
374,18	58051,00
374,65	55301,00
375,12	52300,00
375,59	48721,00
376,05	45661,00
376,52	42445,00
376,99	39895,00
377,46	37419,00
377,93	35033,00
378,40	32986,00
378,86	31084,00
379,33	29220,00
379,80	27748,00
380,27	26573,00
380,74	25229,00
381,21	23982,00
381,67	22847,00
382,14	21535,00
382,61	20318,00
383,08	19257,00
383,55	18106,00
384,02	17089,00
384,48	16016,00
384,95	15328,00
385,42	14323,00
385,89	13267,00
386,36	12496,00
386,82	11896,00
387,29	10994,00
387,76	10410,00
388,23	10007,00
388,69	9464,00
389,16	9069,00
389,63	8582,00
390,10	8375,00
390,57	7949,00
391,03	7615,00
391,50	7299,00
391,97	7117,00
392,44	6827,00
392,90	6553,00
393,37	6286,00
393,84	6338,00
394,31	6022,00
394,77	5863,00
395,24	5517,00
395,71	5517,00
396,18	5449,00
396,64	4995,00
397,11	4972,00
397,58	4830,00
398,05	4594,00
398,51	4534,00
398,98	4406,00
399,45	4246,00
399,92	4223,00
400,38	4070,00
400,85	4025,00
401,32	3939,00
401,78	3981,00
402,25	3866,00
402,72	3780,00
403,18	3711,00
403,65	3764,00
404,12	3663,00
404,59	3672,00
405,05	3649,00
405,52	3599,00
405,99	3464,00
406,45	3512,00
406,92	3449,00
407,39	3504,00
407,85	3391,00
408,32	3328,00
408,79	3350,00
409,25	3221,00
409,72	3375,00
410,19	3167,00
410,65	3318,00
411,12	3196,00
411,59	3276,00
412,05	3178,00
412,52	3117,00
412,99	3176,00
413,45	3165,00
413,92	3161,00
414,39	3166,00
414,85	3207,00
415,32	3091,00
415,78	3182,00
416,25	3092,00
416,72	3108,00
417,18	3188,00
417,65	3135,00
418,12	3047,00
418,58	3069,00
419,05	3097,00
419,51	3101,00
419,98	2989,00
420,45	3057,00
420,91	3004,00
421,38	3077,00
421,84	2993,00
422,31	3041,00
422,78	3001,00
423,24	3046,00
423,71	3050,00
424,17	3068,00
424,64	3017,00
425,11	3088,00
425,57	2998,00
426,04	3070,00
426,50	3011,00
426,97	3060,00
427,43	3050,00
427,90	3059,00
428,37	2945,00
428,83	3064,00
429,30	3043,00
429,76	3003,00
430,23	3023,00
430,69	3181,00
431,16	2965,00
431,62	3000,00
432,09	3087,00
432,55	3062,00
433,02	2983,00
433,48	2948,00
433,95	3008,00
434,42	2955,00
434,88	3018,00
435,35	2951,00
435,81	2979,00
436,28	2971,00
436,74	2933,00
437,21	3030,00
437,67	2971,00
438,14	2993,00
438,60	2937,00
439,07	2973,00
439,53	3192,00
440,00	2999,00
440,46	3024,00
440,93	3033,00
441,39	2909,00
441,86	2966,00
442,32	3137,00
442,79	2922,00
443,25	3005,00
443,72	2982,00
444,18	2940,00
444,64	3051,00
445,11	3002,00
445,57	2981,00
446,04	2961,00
446,50	2987,00
446,97	2984,00
447,43	2955,00
447,90	2964,00
448,36	2970,00
448,83	2996,00
449,29	3016,00
449,75	2980,00
450,22	2926,00
450,68	2924,00
451,15	2933,00
451,61	3011,00
452,08	3033,00
452,54	2938,00
453,00	3007,00
453,47	2963,00
453,93	2981,00
454,40	2959,00
454,86	3027,00
455,32	2948,00
455,79	2965,00
456,25	3033,00
456,72	2939,00
457,18	3047,00
457,64	2943,00
458,11	2948,00
458,57	2912,00
459,04	2963,00
459,50	2946,00
459,96	2971,00
460,43	2953,00
460,89	2925,00
461,36	3022,00
461,82	3006,00
462,28	2926,00
462,75	2899,00
463,21	3012,00
463,67	2946,00
464,14	2944,00
464,60	2971,00
465,06	2943,00
465,53	2951,00
465,99	2998,00
466,45	2958,00
466,92	2974,00
467,38	2984,00
467,84	2933,00
468,31	2969,00
468,77	2983,00
469,23	2983,00
469,70	2929,00
470,16	2982,00
470,62	2963,00
471,09	2902,00
471,55	2930,00
472,01	2945,00
472,48	2957,00
472,94	2939,00
473,40	3028,00
473,87	2955,00
474,33	2909,00
474,79	2956,00
475,25	2900,00
475,72	2983,00
476,18	2951,00
476,64	2969,00
477,11	2954,00
477,57	2941,00
478,03	3054,00
478,49	2951,00
478,96	2992,00
479,42	2930,00
479,88	3050,00
480,35	2997,00
480,81	2942,00
481,27	2926,00
481,73	2974,00
482,20	2945,00
482,66	2911,00
483,12	2930,00
483,58	2892,00
484,05	2923,00
484,51	3044,00
484,97	2970,00
485,43	2965,00
485,89	2884,00
486,36	2951,00
486,82	2921,00
487,28	2997,00
487,74	2916,00
488,21	2929,00
488,67	2938,00
489,13	2969,00
489,59	2967,00
490,05	3009,00
490,52	2874,00
490,98	2978,00
491,44	2917,00
491,90	2920,00
492,36	2896,00
492,83	3040,00
493,29	2986,00
493,75	2972,00
494,21	2933,00
494,67	2944,00
495,14	2982,00
495,60	2919,00
496,06	2986,00
496,52	2948,00
496,98	2955,00
497,44	3081,00
497,91	3030,00
498,37	2934,00
498,83	2979,00
499,29	2964,00
499,75	3069,00
500,21	2955,00
500,67	2963,00
501,14	2993,00
501,60	2991,00
502,06	3026,00
502,52	2954,00
502,98	2968,00
503,44	2982,00
503,90	3016,00
504,37	2973,00
504,83	2993,00
505,29	3031,00
505,75	2962,00
506,21	2977,00
506,67	3030,00
507,13	2969,00
507,59	3018,00
508,05	2986,00
508,51	2979,00
508,98	2989,00
509,44	2942,00
509,90	3010,00
510,36	2974,00
510,82	2968,00
511,28	3082,00
511,74	3090,00
512,20	2957,00
512,66	2950,00
513,12	3003,00
513,58	3065,00
514,04	2948,00
514,51	3042,00
514,97	3132,00
515,43	2930,00
515,89	3027,00
516,35	3094,00
516,81	3084,00
517,27	3173,00
517,73	3053,00
518,19	3052,00
518,65	3221,00
519,11	3027,00
519,57	3004,00
520,03	3006,00
520,49	2979,00
520,95	3049,00
521,41	3091,00
521,87	3091,00
522,33	3039,00
522,79	2994,00
523,25	3126,00
523,71	3129,00
524,17	3045,00
524,63	3175,00
525,09	3091,00
525,55	3077,00
526,01	3129,00
526,47	3066,00
526,93	3048,00
527,39	3071,00
527,85	3050,00
528,31	3107,00
528,77	3055,00
529,23	3069,00
529,69	3021,00
530,15	3093,00
530,61	3088,00
531,07	3022,00
531,53	3121,00
531,99	3070,00
532,45	3061,00
532,91	3056,00
533,37	3086,00
533,83	3070,00
534,29	3009,00
534,75	3061,00
535,21	3038,00
535,67	3077,00
536,12	3084,00
536,58	3109,00
537,04	3026,00
537,50	3093,00
537,96	3059,00
538,42	3077,00
538,88	3130,00
539,34	3103,00
539,80	3360,00
540,26	3046,00
540,72	3170,00
541,18	3067,00
541,63	3029,00
542,09	3124,00
542,55	3107,00
543,01	3041,00
543,47	3246,00
543,93	3040,00
544,39	3207,00
544,85	3150,00
545,31	3075,00
545,76	3072,00
546,22	3105,00
546,68	3101,00
547,14	3113,00
547,60	3100,00
548,06	3099,00
548,52	3100,00
548,98	3065,00
549,43	3064,00
549,89	3222,00
550,35	3093,00
550,81	3058,00
551,27	3102,00
551,73	3104,00
552,19	3157,00
552,64	3140,00
553,10	3052,00
553,56	3134,00
554,02	3104,00
554,48	3066,00
554,93	3096,00
555,39	3114,00
555,85	3189,00
556,31	3121,00
556,77	3154,00
557,23	3047,00
557,68	3082,00
558,14	3204,00
558,60	3126,00
559,06	3127,00
559,52	3075,00
559,97	3087,00
560,43	3064,00
560,89	3130,00
561,35	3093,00
561,81	3128,00
562,26	3108,00
562,72	3067,00
563,18	3093,00
563,64	3154,00
564,09	3060,00
564,55	3091,00
565,01	3061,00
565,47	3094,00
565,92	3110,00
566,38	3177,00
566,84	3109,00
567,30	3081,00
567,75	3135,00
568,21	3191,00
568,67	3065,00
569,13	3067,00
569,58	3158,00
570,04	3120,00
570,50	3133,00
570,96	3146,00
571,41	3123,00
571,87	3099,00
572,33	3157,00
572,78	3123,00
573,24	3076,00
573,70	3092,00
574,16	3104,00
574,61	3190,00
575,07	3161,00
575,53	3099,00
575,98	3143,00
576,44	3039,00
576,90	3165,00
577,36	3101,00
577,81	3129,00
578,27	3055,00
578,73	3200,00
579,18	3165,00
579,64	3079,00
580,10	3122,00
580,55	3135,00
581,01	3100,00
581,47	3122,00
581,92	3098,00
582,38	3126,00
582,84	3057,00
583,29	3075,00
583,75	3111,00
584,21	3126,00
584,66	3094,00
585,12	3094,00
585,57	3248,00
586,03	3101,00
586,49	3125,00
586,94	3063,00
587,40	3080,00
587,86	3172,00
588,31	3061,00
588,77	3093,00
589,22	3129,00
589,68	3060,00
590,14	3107,00
590,59	3173,00
591,05	3080,00
591,51	3032,00
591,96	3159,00
592,42	3081,00
592,87	3113,00
593,33	3093,00
593,78	3100,00
594,24	3090,00
594,70	3109,00
595,15	3170,00
595,61	3077,00
596,06	3057,00
596,52	3161,00
596,98	3128,00
597,43	3177,00
597,89	3077,00
598,34	3048,00
598,80	3096,00
599,25	3132,00
599,71	3070,00
600,16	3123,00
600,62	3147,00
601,08	3101,00
601,53	3149,00
601,99	3013,00
602,44	3276,00
602,90	3041,00
603,35	3125,00
603,81	3025,00
604,26	2996,00
604,72	3107,00
605,17	3081,00
605,63	3109,00
606,08	3087,00
606,54	3017,00
606,99	3069,00
607,45	3100,00
607,90	3062,00
608,36	3100,00
608,81	3107,00
609,27	3223,00
609,72	3125,00
610,18	3088,00
610,63	3032,00
611,09	3087,00
611,54	3016,00
612,00	3171,00
612,45	3125,00
612,91	3092,00
613,36	3234,00
613,82	3023,00
614,27	3034,00
614,73	3012,00
615,18	3044,00
615,64	3074,00
616,09	3047,00
616,54	3018,00
617,00	3041,00
617,45	3042,00
617,91	3104,00
618,36	3028,00
618,82	3056,00
619,27	3061,00
619,72	3087,00
620,18	3044,00
620,63	3109,00
621,09	3110,00
621,54	3061,00
622,00	3123,00
622,45	3166,00
622,90	3097,00
623,36	3042,00
623,81	3046,00
624,27	3123,00
624,72	2942,00
625,17	3052,00
625,63	3096,00
626,08	3023,00
626,54	3051,00
626,99	3099,00
627,44	3036,00
627,90	3088,00
628,35	3101,00
628,81	2995,00
629,26	3050,00
629,71	3066,00
630,17	3022,00
630,62	3075,00
631,07	3038,00
631,53	3063,00
631,98	3090,00
632,43	3101,00
632,89	3005,00
633,34	3024,00
633,79	2991,00
634,25	3029,00
634,70	2999,00
635,15	3031,00
635,61	3016,00
636,06	2982,00
636,51	3029,00
636,97	3017,00
637,42	2980,00
637,87	3088,00
638,33	3081,00
638,78	3053,00
639,23	3014,00
639,69	2991,00
640,14	2979,00
640,59	3052,00
641,05	3084,00
641,50	2995,00
641,95	3025,00
642,40	3008,00
642,86	3028,00
643,31	3014,00
643,76	3085,00
644,22	3024,00
644,67	3009,00
645,12	3002,00
645,57	2984,00
646,03	3044,00
646,48	3037,00
646,93	3033,00
647,38	3061,00
647,84	3075,00
648,29	3043,00
648,74	2983,00
649,19	3092,00
649,65	3057,00
650,10	3229,00
650,55	2991,00
651,00	3003,00
651,46	2971,00
651,91	3023,00
652,36	2988,00
652,81	3015,00
653,27	2995,00
653,72	2968,00
654,17	3016,00
654,62	3013,00
655,07	3012,00
655,53	2996,00
655,98	3036,00
656,43	2942,00
656,88	2995,00
657,33	3017,00
657,79	3039,00
658,24	2970,00
658,69	3029,00
659,14	2942,00
659,59	3254,00
660,05	2990,00
660,50	3073,00
660,95	2977,00
661,40	2967,00
661,85	2979,00
662,30	2966,00
662,76	2915,00
663,21	3013,00
663,66	2969,00
664,11	2989,00
664,56	3003,00
665,01	2929,00
665,47	3018,00
665,92	2947,00
666,37	3015,00
666,82	3010,00
667,27	3132,00
667,72	3047,00
668,17	2979,00
668,62	2999,00
669,08	2917,00
669,53	3110,00
669,98	2938,00
670,43	2927,00
670,88	3049,00
671,33	3002,00
671,78	3099,00
672,23	3130,00
672,69	2980,00
673,14	2950,00
673,59	3077,00
674,04	3190,00
674,49	2997,00
674,94	2997,00
675,39	2938,00
675,84	2952,00
676,29	2982,00
676,74	2983,00
677,19	2959,00
677,64	2945,00
678,10	3132,00
678,55	2922,00
679,00	2940,00
679,45	2981,00
679,90	2949,00
680,35	2991,00
680,80	2953,00
681,25	2897,00
681,70	2888,00
682,15	2967,00
682,60	2973,00
683,05	3060,00
683,50	3023,00
683,95	2972,00
684,40	3026,00
684,85	2988,00
685,30	2967,00
685,75	2998,00
686,20	2933,00
686,65	2935,00
687,10	2955,00
687,55	2949,00
688,00	2976,00
688,45	2957,00
688,90	3119,00
689,35	3007,00
689,80	2903,00
690,25	2975,00
690,70	2932,00
691,15	2927,00
691,60	2953,00
692,05	2915,00
692,50	2989,00
692,95	2943,00
693,40	3005,00
693,85	3014,00
694,30	2986,00
694,75	2984,00
695,20	3218,00
695,65	2973,00
696,10	2958,00
696,55	3055,00
697,00	2977,00
697,45	2933,00
697,90	2972,00
698,35	2933,00
698,80	3006,00
699,24	2989,00
699,69	2931,00
700,14	2928,00
700,59	2991,00
701,04	3001,00
701,49	3163,00
701,94	2907,00
702,39	3053,00
702,84	2915,00
703,29	2937,00
703,74	2973,00
704,19	2933,00
704,63	2941,00
705,08	3012,00
705,53	3015,00
705,98	3012,00
706,43	2884,00
706,88	2989,00
707,33	2950,00
707,78	2934,00
708,22	2971,00
708,67	3006,00
709,12	2947,00
709,57	2911,00
710,02	2964,00
710,47	2973,00
710,92	2958,00
711,37	2988,00
711,81	2926,00
712,26	2966,00
712,71	2891,00
713,16	3071,00
713,61	2958,00
714,06	2987,00
714,50	3026,00
714,95	3036,00
715,40	2946,00
715,85	2987,00
716,30	2908,00
716,75	2950,00
717,19	2897,00
717,64	2892,00
718,09	2979,00
718,54	3059,00
718,99	2907,00
719,43	2885,00
719,88	2943,00
720,33	2923,00
720,78	2933,00
721,23	2988,00
721,67	2912,00
722,12	2977,00
722,57	2960,00
723,02	2907,00
723,47	2863,00
723,91	2943,00
724,36	2875,00
724,81	2961,00
725,26	2913,00
725,70	2943,00
726,15	2941,00
726,60	2953,00
727,05	3024,00
727,49	2903,00
727,94	3032,00
728,39	2950,00
728,84	2916,00
729,28	3015,00
729,73	2924,00
730,18	3004,00
730,63	2885,00
731,07	2946,00
731,52	2959,00
731,97	2957,00
732,41	2973,00
732,86	2918,00
733,31	2985,00
733,76	2961,00
734,20	2908,00
734,65	2966,00
735,10	2976,00
735,54	2966,00
735,99	3100,00
736,44	2906,00
736,89	2974,00
737,33	2981,00
737,78	2993,00
738,23	2969,00
738,67	2944,00
739,12	2936,00
739,57	2887,00
740,01	3015,00
740,46	2925,00
740,91	2905,00
741,35	2976,00
741,80	2985,00
742,25	2937,00
742,69	2965,00
743,14	2904,00
743,59	2907,00
744,03	2954,00
744,48	2986,00
744,92	2997,00
745,37	2933,00
745,82	3009,00
746,26	3028,00
746,71	2868,00
747,16	2917,00
747,60	2879,00
748,05	2969,00
748,49	2947,00
748,94	2926,00
749,39	2982,00
749,83	3114,00
750,28	2958,00
750,73	2951,00
751,17	2921,00
751,62	2929,00
752,06	2940,00
752,51	2937,00
752,95	3065,00
753,40	2914,00
753,85	2930,00
754,29	2887,00
754,74	2911,00
755,18	2912,00
755,63	2927,00
756,07	2973,00
756,52	3003,00
756,97	2929,00
757,41	3029,00
757,86	2954,00
758,30	2928,00
758,75	2934,00
759,19	2930,00
759,64	2878,00
760,08	2924,00
760,53	2929,00
760,98	2922,00
761,42	2978,00
761,87	2981,00
762,31	2908,00
762,76	2848,00
763,20	2915,00
763,65	2955,00
764,09	2936,00
764,54	2902,00
764,98	2873,00
765,43	2949,00
765,87	2888,00
766,32	2889,00
766,76	2901,00
767,21	2938,00
767,65	2964,00
768,10	2972,00
768,54	2989,00
768,99	2929,00
769,43	3034,00
769,88	2896,00
770,32	2923,00
770,77	2925,00
771,21	2891,00
771,65	2968,00
772,10	2972,00
772,54	2944,00
772,99	2890,00
773,43	2937,00
773,88	2923,00
774,32	2857,00
774,77	2940,00
775,21	2922,00
775,65	2953,00
776,10	2916,00
776,54	2914,00
776,99	2913,00
777,43	2915,00
777,88	2955,00
778,32	2931,00
778,76	2889,00
779,21	2917,00
779,65	3100,00
780,10	3005,00
780,54	2934,00
780,99	2993,00
781,43	2937,00
781,87	2924,00
782,32	2939,00
782,76	2911,00
783,20	2932,00
783,65	2982,00
784,09	2992,00
784,54	2921,00
784,98	2917,00
785,42	2907,00
785,87	2908,00
786,31	2993,00
786,75	2991,00
787,20	3011,00
787,64	2879,00
788,09	2883,00
788,53	2956,00
788,97	2886,00
789,42	2930,00
789,86	2920,00
790,30	2935,00
790,75	2909,00
791,19	2891,00
791,63	2997,00
792,08	2907,00
792,52	2952,00
792,96	2908,00
793,41	3146,00
793,85	3010,00
794,29	2943,00
794,74	2936,00
795,18	2939,00
795,62	2916,00
796,06	2955,00
796,51	2911,00
796,95	2965,00
797,39	2907,00
797,84	2896,00
798,28	2934,00
798,72	3005,00
799,16	2971,00
799,61	2912,00
800,05	3005,00
800,49	2942,00
800,94	2885,00
801,38	2981,00
801,82	2957,00
802,26	2898,00
802,71	2983,00
803,15	3027,00
803,59	2980,00
804,03	2963,00
804,48	2933,00
804,92	2909,00
805,36	3037,00
805,80	3032,00
806,25	3080,00
806,69	2963,00
807,13	3025,00
807,57	2902,00
808,01	2958,00
808,46	2892,00
808,90	2974,00
809,34	2960,00
809,78	2930,00
810,23	2891,00
810,67	2971,00
811,11	3006,00
811,55	3113,00
811,99	2951,00
812,44	2911,00
812,88	2975,00
813,32	3003,00
813,76	2983,00
814,20	2944,00
814,64	2953,00
815,09	2972,00
815,53	2924,00
815,97	2895,00
816,41	2902,00
816,85	2904,00
817,29	2949,00
817,74	2925,00
818,18	3000,00
818,62	2901,00
819,06	2936,00
819,50	3003,00
819,94	2900,00
820,39	2939,00
820,83	2895,00
821,27	2928,00
821,71	2895,00
822,15	3000,00
822,59	2919,00
823,03	2923,00
823,47	2956,00
823,92	2895,00
824,36	2938,00
824,80	2942,00
825,24	2915,00
825,68	2943,00
826,12	2901,00
826,56	2949,00
827,00	2842,00
827,44	2939,00
827,88	2987,00
828,33	3001,00
828,77	2897,00
829,21	2985,00
829,65	2945,00
830,09	2898,00
830,53	3031,00
830,97	2893,00
831,41	3036,00
831,85	2973,00
832,29	2930,00
832,73	2885,00
833,17	2915,00
833,61	2915,00
834,05	2975,00
834,49	2974,00
834,93	2939,00
835,37	2874,00
835,82	2975,00
836,26	2924,00
836,70	2931,00
837,14	2916,00
837,58	2982,00
838,02	2893,00
838,46	2880,00
838,90	2965,00
839,34	2920,00
839,78	3029,00
840,22	3058,00
840,66	2932,00
841,10	3015,00
841,54	2869,00
841,98	2919,00
842,42	2861,00
842,86	2893,00
843,30	2953,00
843,74	2920,00
844,18	2966,00
844,62	2949,00
845,06	2879,00
845,50	2973,00
845,94	2906,00
846,37	2984,00
846,81	2921,00
847,25	2916,00
847,69	2911,00
848,13	2889,00
848,57	2901,00
849,01	2897,00
849,45	2956,00
849,89	2992,00
850,33	2956,00
850,77	2921,00
851,21	2972,00
851,65	2903,00
852,09	2931,00
852,53	2992,00
852,97	2915,00
853,40	2910,00
853,84	2966,00
854,28	2855,00
854,72	2961,00
855,16	2897,00
855,60	2895,00
856,04	2983,00
856,48	2999,00
856,92	2947,00
857,36	2971,00
857,79	2931,00
858,23	2881,00
858,67	2998,00
859,11	2863,00
859,55	2885,00
859,99	2913,00
860,43	2927,00
860,87	2921,00
861,30	2964,00
861,74	2918,00
862,18	2936,00
862,62	2964,00
863,06	2917,00
863,50	2940,00
863,94	2985,00
864,37	2858,00
864,81	2899,00
865,25	2914,00
865,69	2895,00
866,13	2909,00
866,57	2839,00
867,00	2975,00
867,44	2874,00
867,88	2943,00
868,32	2926,00
868,76	2929,00
869,19	2955,00
869,63	2926,00
870,07	3011,00
870,51	3075,00
870,95	2898,00
871,38	2924,00
871,82	2921,00
872,26	2896,00
872,70	2905,00
873,14	2918,00
873,57	2918,00
874,01	2967,00
874,45	2954,00
874,89	2922,00
875,32	2875,00
875,76	3013,00
876,20	2814,00
876,64	2944,00
877,07	2915,00
877,51	2915,00
877,95	2899,00
878,39	2902,00
878,82	2937,00
879,26	2948,00
879,70	2998,00
880,14	2897,00
880,57	2887,00
881,01	2902,00
881,45	2955,00
881,89	2969,00
882,32	2935,00
882,76	2916,00
883,20	2935,00
883,63	2920,00
884,07	2914,00
884,51	2957,00
884,94	2929,00
885,38	2957,00
885,82	3014,00
886,26	2928,00
886,69	2887,00
887,13	3023,00
887,57	2883,00
888,00	2892,00
888,44	2905,00
888,88	2915,00
889,31	3129,00
889,75	2867,00
890,19	2966,00
890,62	2908,00
891,06	2991,00
891,50	2983,00
891,93	2878,00
892,37	2907,00
892,81	2914,00
893,24	2910,00
893,68	2897,00
894,11	2964,00
894,55	2926,00
894,99	2951,00
895,42	2929,00
895,86	2898,00
896,30	2922,00
896,73	2948,00
897,17	2893,00
897,60	2888,00
898,04	2874,00
898,48	2937,00
898,91	2979,00
899,35	2902,00
899,78	2861,00
900,22	2885,00
900,66	2965,00
901,09	2956,00
901,53	2916,00
901,96	3033,00
902,40	3064,00
902,84	2892,00
903,27	2925,00
903,71	3008,00
904,14	2894,00
904,58	2950,00
905,01	2916,00
905,45	2927,00
905,88	2885,00
906,32	3020,00
906,76	2945,00
907,19	2968,00
907,63	2957,00
908,06	2935,00
908,50	2943,00
908,93	3011,00
909,37	2905,00
909,80	2873,00
910,24	2950,00
910,67	2961,00
911,11	2899,00
911,54	2901,00
911,98	2908,00
912,41	2943,00
912,85	2911,00
913,28	2954,00
913,72	2952,00
914,15	2927,00
914,59	2881,00
915,02	2878,00
915,46	2914,00
915,89	2910,00
916,33	2994,00
916,76	2939,00
917,20	3001,00
917,63	2887,00
918,07	2956,00
918,50	2883,00
918,94	2921,00
919,37	2928,00
919,81	2959,00
920,24	2973,00
920,67	2928,00
921,11	3036,00
921,54	2947,00
921,98	2903,00
922,41	2862,00
922,85	2872,00
923,28	2945,00
923,72	3017,00
924,15	2944,00
924,58	2868,00
925,02	2952,00
925,45	2889,00
925,89	2958,00
926,32	3084,00
926,75	2913,00
927,19	2927,00
927,62	2887,00
928,06	3054,00
928,49	2920,00
928,92	2834,00
929,36	2924,00
929,79	2933,00
930,23	2938,00
930,66	2962,00
931,09	2925,00
931,53	2935,00
931,96	2861,00
932,39	3003,00
932,83	2964,00
933,26	3055,00
933,70	2914,00
934,13	2992,00
934,56	2950,00
935,00	2948,00
935,43	2946,00
935,86	2894,00
936,30	2915,00
936,73	2891,00
937,16	2925,00
937,60	2873,00
938,03	2943,00
938,46	2905,00
938,90	2898,00
939,33	2944,00
939,76	2869,00
940,19	2906,00
940,63	2981,00
941,06	3001,00
941,49	2884,00
941,93	2962,00
942,36	2889,00
942,79	2899,00
943,23	2965,00
943,66	2867,00
944,09	2880,00
944,52	2906,00
944,96	2901,00
945,39	2947,00
945,82	2915,00
946,26	2924,00
946,69	2935,00
947,12	2966,00
947,55	2891,00
947,99	2896,00
948,42	2940,00
948,85	2850,00
949,28	2876,00
949,72	2845,00
950,15	3068,00
950,58	2977,00
951,01	2903,00
951,45	2909,00
951,88	2922,00
952,31	2856,00
952,74	2976,00
953,17	2924,00
953,61	3022,00
954,04	2851,00
954,47	2874,00
954,90	2913,00
955,33	2869,00
955,77	2920,00
956,20	2940,00
956,63	2879,00
957,06	2945,00
957,49	3042,00
957,93	2877,00
958,36	2932,00
958,79	2927,00
959,22	2884,00
959,65	2890,00
960,08	2879,00
960,52	2827,00
960,95	2910,00
961,38	2971,00
961,81	2956,00
962,24	2991,00
962,67	2954,00
963,11	2880,00
963,54	2939,00
963,97	2886,00
964,40	2905,00
964,83	2891,00
965,26	2882,00
965,69	2959,00
966,13	2904,00
966,56	2914,00
966,99	2952,00
967,42	2894,00
967,85	2882,00
968,28	2989,00
968,71	3135,00
969,14	2943,00
969,57	2918,00
970,01	2929,00
970,44	2895,00
970,87	2915,00
971,30	2931,00
971,73	2894,00
972,16	2918,00
972,59	2856,00
973,02	2886,00
973,45	2922,00
973,88	2975,00
974,31	2928,00
974,74	2945,00
975,17	2928,00
975,61	2876,00
976,04	2889,00
976,47	2889,00
976,90	2942,00
977,33	2859,00
977,76	2938,00
978,19	2910,00
978,62	2915,00
979,05	2893,00
979,48	2926,00
979,91	2936,00
980,34	2943,00
980,77	2920,00
981,20	2934,00
981,63	2948,00
982,06	2950,00
982,49	2923,00
982,92	2898,00
983,35	2929,00
983,78	2886,00
984,21	2989,00
984,64	2938,00
985,07	2833,00
985,50	2849,00
985,93	2909,00
986,36	2949,00
986,79	2888,00
987,22	2886,00
987,65	2929,00
988,08	2919,00
988,51	2900,00
988,94	2908,00
989,37	2942,00
989,80	2899,00
990,23	2902,00
990,66	2954,00
991,09	2929,00
991,51	2952,00
991,94	3051,00
992,37	2886,00
992,80	2888,00
993,23	2897,00
993,66	2908,00
994,09	2862,00
994,52	2919,00
994,95	2977,00
995,38	2928,00
995,81	2917,00
996,24	2848,00
996,67	2879,00
997,09	2845,00
997,52	2954,00
997,95	2952,00
998,38	2873,00
998,81	2985,00
999,24	2871,00
999,67	2989,00
1000,10	2928,00
1000,53	2933,00
1000,95	2979,00
1001,38	2859,00
1001,81	2938,00
1002,24	2978,00
1002,67	2921,00
1003,10	2915,00
1003,53	2947,00
1003,95	2906,00
1004,38	2919,00
1004,81	2918,00
1005,24	2904,00
1005,67	3009,00
1006,10	2927,00
1006,52	2865,00
1006,95	2938,00
1007,38	2927,00
1007,81	2887,00
1008,24	2858,00
1008,67	2935,00
1009,09	2913,00
1009,52	3137,00
1009,95	2994,00
1010,38	2947,00
1010,81	2924,00
1011,23	2949,00
1011,66	2959,00
1012,09	2902,00
1012,52	2969,00
1012,95	2945,00
1013,37	2959,00
1013,80	2948,00
1014,23	2878,00
1014,66	2995,00
1015,08	2885,00
1015,51	2935,00
1015,94	2879,00
1016,37	2939,00
1016,80	2868,00
1017,22	2954,00
1017,65	2899,00
1018,08	2900,00
1018,51	2925,00
1018,93	2832,00
1019,36	3065,00
1019,79	2999,00
1020,21	2931,00
1020,64	2927,00
1021,07	2907,00
1021,50	2940,00
1021,92	2930,00
1022,35	2924,00
1022,78	2924,00
1023,21	3092,00
1023,63	3004,00
1024,06	2986,00
1024,49	2944,00
1024,91	2938,00
1025,34	2919,00
1025,77	2940,00
1026,19	2896,00
1026,62	2886,00
1027,05	3026,00
1027,47	2944,00
1027,90	2942,00
1028,33	2919,00
1028,75	2948,00
1029,18	2896,00
1029,61	3044,00
1030,03	2906,00
1030,46	2927,00
1030,89	2960,00
1031,31	3008,00
1031,74	2866,00
1032,17	2927,00
1032,59	2949,00
1033,02	2898,00
1033,45	2991,00
1033,87	2868,00
1034,30	2890,00
1034,73	2913,00
1035,15	2956,00
1035,58	2905,00
1036,00	3002,00
1036,43	2906,00
1036,86	2905,00
1037,28	2923,00
1037,71	2858,00
1038,13	2951,00
1038,56	2960,00
1038,99	2943,00
1039,41	2989,00
1039,84	3035,00
1040,26	2938,00
1040,69	2919,00
1041,11	2969,00
1041,54	2892,00
1041,97	2999,00
1042,39	2976,00
1042,82	2961,00
1043,24	2957,00
1043,67	2906,00
1044,09	2949,00
1044,52	2868,00
1044,95	2906,00
1045,37	2901,00
1045,80	2883,00
1046,22	2926,00
1046,65	2942,00
1047,07	2859,00
1047,50	2945,00
1047,92	2945,00
1048,35	2889,00
1048,77	2964,00
1049,20	2963,00
1049,62	2989,00
1050,05	2904,00
1050,47	2896,00
1050,90	2931,00
1051,32	2950,00
1051,75	2985,00
1052,17	2983,00
1052,60	2915,00
1053,02	2971,00
1053,45	2845,00
1053,87	2920,00
1054,30	2853,00
1054,72	2945,00
1055,15	2876,00
1055,57	2957,00
1056,00	2954,00
1056,42	3007,00
1056,85	2973,00
1057,27	2967,00
1057,70	2953,00
1058,12	3134,00
1058,54	2853,00
1058,97	2930,00
1059,39	2975,00
1059,82	2934,00
1060,24	2929,00
1060,67	2885,00
1061,09	2978,00
1061,51	2911,00
1061,94	2890,00
1062,36	2962,00
1062,79	3010,00
1063,21	2917,00
1063,64	2923,00
1064,06	2894,00
1064,48	2961,00
1064,91	2978,00
1065,33	2903,00
1065,76	2847,00
1066,18	2866,00
1066,60	2955,00
1067,03	2919,00
1067,45	2911,00
1067,87	2936,00
1068,30	2892,00
1068,72	3018,00
1069,15	2922,00
1069,57	2907,00
1069,99	2874,00
1070,42	2999,00
1070,84	2978,00
1071,26	2959,00
1071,69	2902,00
1072,11	2948,00
1072,53	2883,00
1072,96	2899,00
1073,38	2882,00
1073,80	2933,00
1074,23	2901,00
1074,65	2881,00
1075,07	2898,00
1075,50	2911,00
1075,92	2912,00
1076,34	2882,00
1076,77	2909,00
1077,19	2896,00
1077,61	2936,00
1078,04	2903,00
1078,46	2923,00
1078,88	3021,00
1079,30	2852,00
1079,73	2945,00
1080,15	2909,00
1080,57	2909,00
1081,00	2933,00
1081,42	2883,00
1081,84	2911,00
1082,26	2949,00
1082,69	2898,00
1083,11	2900,00
1083,53	2924,00
1083,95	2958,00
1084,38	2952,00
1084,80	2924,00
1085,22	2909,00
1085,64	2979,00
1086,07	2884,00
1086,49	2908,00
1086,91	2910,00
1087,33	2853,00
1087,76	2933,00
1088,18	4355,00
1088,60	2909,00
1089,02	2908,00
1089,45	2901,00
1089,87	2898,00
1090,29	2955,00
1090,71	2896,00
1091,13	2856,00
1091,56	2910,00
1091,98	2897,00
1092,40	2903,00
1092,82	2935,00
1093,24	2891,00
1093,66	2919,00
1094,09	2899,00
1094,51	2921,00
1094,93	2898,00
1095,35	2938,00
1095,77	2890,00
1096,19	2909,00
1096,62	2973,00
1097,04	2873,00
1097,46	2926,00
1097,88	2886,00
1098,30	2914,00
1098,72	2943,00
1099,15	2938,00
1099,57	2913,00
1099,99	2927,00
1100,41	2874,00
1100,83	2923,00
1101,25	2881,00
1101,67	2883,00
1102,09	2898,00
1102,52	2879,00
1102,94	2898,00
1103,36	2900,00
1103,78	2903,00
1104,20	2892,00
1104,62	3021,00
1105,04	2844,00
1105,46	2911,00
1105,88	2914,00
1106,30	2892,00
1106,73	2879,00
1107,15	2866,00
1107,57	2828,00
1107,99	2991,00
1108,41	2856,00
1108,83	2929,00
1109,25	2916,00
1109,67	2900,00
1110,09	2816,00
1110,51	2893,00
1110,93	2830,00
1111,35	2900,00
1111,77	2813,00
1112,19	2830,00
1112,61	2838,00
1113,03	2832,00
1113,45	2844,00
1113,87	2851,00
1114,29	2899,00
1114,71	2901,00
1115,13	2843,00
1115,55	2898,00
1115,98	2854,00
1116,40	2892,00
1116,82	2909,00
1117,24	2857,00
1117,66	2860,00
1118,08	2167,00
1118,50	2178,00
1118,91	2186,00
1119,33	2184,00
>>>>>End Processed Spectral Data<<<<<
