SpectraSuite Data File
++++++++++++++++++++++++++++++++++++
Date: Mon Aug 22 09:41:42 EEST 2011
User: OO Maya
Dark Spectrum Present: No
Reference Spectrum Present: No
Number of Sampled Component Spectra: 1
Spectrometers: MAYP11278
Integration Time (usec): 3000000 (MAYP11278)
Spectra Averaged: 2 (MAYP11278)
Boxcar Smoothing: 0 (MAYP11278)
Correct for Electrical Dark: Yes (MAYP11278)
Strobe/Lamp Enabled: No (MAYP11278)
Correct for Detector Non-linearity: No (MAYP11278)
Correct for Stray Light: No (MAYP11278)
Number of Pixels in Processed Spectrum: 2068
>>>>>Begin Processed Spectral Data<<<<<
200,00	6284,50
200,47	-2034,00
200,95	-2042,00
201,42	-2040,00
201,89	1301,00
202,37	1461,50
202,84	1442,00
203,31	1501,50
203,79	1778,50
204,26	1485,00
204,73	1326,50
205,20	1260,50
205,68	1471,00
206,15	1427,50
206,62	1547,00
207,10	1423,50
207,57	1664,50
208,04	1468,50
208,51	1524,00
208,99	2137,50
209,46	1507,50
209,93	1278,50
210,41	1385,50
210,88	1349,50
211,35	1569,00
211,82	1638,50
212,30	1450,00
212,77	1472,00
213,24	1770,00
213,71	1676,00
214,19	1632,00
214,66	1307,50
215,13	1643,50
215,60	1313,00
216,08	1755,00
216,55	1827,50
217,02	1420,00
217,49	1388,00
217,96	1895,50
218,44	1473,00
218,91	1625,00
219,38	2208,00
219,85	1603,50
220,33	1680,00
220,80	1468,00
221,27	1756,50
221,74	1763,00
222,21	1583,00
222,69	1503,50
223,16	1615,00
223,63	1537,50
224,10	1412,50
224,57	2035,50
225,04	1710,00
225,52	1446,00
225,99	1992,00
226,46	1700,00
226,93	1930,00
227,40	1702,50
227,87	1725,50
228,35	1734,00
228,82	1740,00
229,29	1501,50
229,76	1533,00
230,23	1882,50
230,70	1293,50
231,18	1417,00
231,65	1447,00
232,12	1593,50
232,59	1915,00
233,06	1494,50
233,53	1811,50
234,00	1426,00
234,48	1837,50
234,95	1487,00
235,42	1782,00
235,89	1561,00
236,36	1474,50
236,83	1400,00
237,30	1608,50
237,77	1505,00
238,24	1654,00
238,72	1859,50
239,19	1543,50
239,66	1712,00
240,13	1776,50
240,60	1794,00
241,07	1566,00
241,54	1612,50
242,01	1488,00
242,48	1826,50
242,95	1811,50
243,42	1648,00
243,90	1719,50
244,37	1433,00
244,84	1601,00
245,31	1707,50
245,78	2547,50
246,25	1678,00
246,72	1505,00
247,19	1449,50
247,66	1392,00
248,13	1795,00
248,60	2124,50
249,07	1538,00
249,54	1682,00
250,01	1696,50
250,48	1733,00
250,95	1659,50
251,42	1371,00
251,89	1783,00
252,36	2001,00
252,83	1650,50
253,30	1630,50
253,77	1855,00
254,24	1919,00
254,71	1380,50
255,18	1515,00
255,65	1838,00
256,12	2064,50
256,59	1653,00
257,06	1941,00
257,53	1885,50
258,00	1539,00
258,47	1631,50
258,94	1712,00
259,41	1712,50
259,88	1767,00
260,35	1305,00
260,82	1696,00
261,29	1804,50
261,76	1718,50
262,23	2041,00
262,70	1684,00
263,17	2152,50
263,64	1973,50
264,11	1527,00
264,58	1950,00
265,05	1773,00
265,52	1591,00
265,99	1772,00
266,46	1774,50
266,93	1866,00
267,40	1552,50
267,87	1763,50
268,34	1826,00
268,81	1910,00
269,28	2490,00
269,74	1728,50
270,21	1617,50
270,68	1691,50
271,15	1841,00
271,62	2137,00
272,09	1646,00
272,56	1521,50
273,03	1955,50
273,50	1477,50
273,97	1746,50
274,44	1714,00
274,90	1465,50
275,37	1917,50
275,84	1973,00
276,31	1537,50
276,78	1754,00
277,25	1769,00
277,72	1878,50
278,19	1598,00
278,66	1650,50
279,12	1679,50
279,59	1764,50
280,06	1302,50
280,53	1484,00
281,00	1553,50
281,47	1782,50
281,94	1960,50
282,40	1632,00
282,87	1714,00
283,34	1402,00
283,81	1442,00
284,28	1296,50
284,75	1680,50
285,21	2642,50
285,68	1886,50
286,15	1870,00
286,62	1529,50
287,09	1629,50
287,56	1794,50
288,02	1861,50
288,49	1433,00
288,96	1639,50
289,43	1446,00
289,90	2718,00
290,36	1631,50
290,83	1559,50
291,30	2657,00
291,77	1927,00
292,24	2458,50
292,70	1571,00
293,17	1961,00
293,64	1605,00
294,11	1666,00
294,58	1789,00
295,04	1530,50
295,51	1496,00
295,98	1863,50
296,45	1628,00
296,91	1796,50
297,38	1802,00
297,85	1452,00
298,32	1803,50
298,79	2093,00
299,25	1668,00
299,72	1899,00
300,19	1282,50
300,66	2049,50
301,12	1557,50
301,59	1733,00
302,06	1600,50
302,52	1841,00
302,99	2306,50
303,46	1516,50
303,93	2033,00
304,39	1566,50
304,86	1881,50
305,33	1792,00
305,80	1515,50
306,26	1703,00
306,73	1771,50
307,20	2124,50
307,66	2163,50
308,13	1864,50
308,60	1816,00
309,07	1804,00
309,53	1623,50
310,00	2146,00
310,47	1690,00
310,93	1837,50
311,40	1644,50
311,87	1916,00
312,33	1925,50
312,80	1895,50
313,27	1531,50
313,73	1923,00
314,20	1907,50
314,67	1493,50
315,13	1591,50
315,60	1515,00
316,07	1740,00
316,53	1800,50
317,00	1742,50
317,47	1851,50
317,93	1579,50
318,40	1631,00
318,87	1794,50
319,33	1642,50
319,80	1940,00
320,26	1982,00
320,73	1853,50
321,20	1845,50
321,66	1834,00
322,13	1609,00
322,60	2005,00
323,06	1729,50
323,53	2214,50
323,99	1572,50
324,46	1623,50
324,93	1851,00
325,39	1613,50
325,86	1611,50
326,32	1945,50
326,79	1833,00
327,26	1795,00
327,72	1875,00
328,19	1743,50
328,65	2509,50
329,12	1770,00
329,59	1659,00
330,05	1468,50
330,52	1780,50
330,98	2163,00
331,45	1877,00
331,91	1660,50
332,38	1375,00
332,85	1498,00
333,31	2128,50
333,78	1652,50
334,24	1839,50
334,71	1470,50
335,17	1790,50
335,64	1643,00
336,10	1673,00
336,57	1639,00
337,03	1626,50
337,50	1877,00
337,96	1791,00
338,43	1851,50
338,90	1782,00
339,36	1670,50
339,83	1765,50
340,29	1642,50
340,76	1567,50
341,22	1896,50
341,69	1805,50
342,15	2202,00
342,62	1537,00
343,08	2267,00
343,55	1894,50
344,01	1906,50
344,48	2070,00
344,94	1789,00
345,41	1927,50
345,87	2700,00
346,34	1484,00
346,80	1713,50
347,27	1668,00
347,73	1856,50
348,19	1667,50
348,66	1657,50
349,12	2177,50
349,59	1991,50
350,05	1483,50
350,52	1643,00
350,98	1622,50
351,45	1910,50
351,91	2018,50
352,38	1658,50
352,84	1806,50
353,30	1927,50
353,77	1803,50
354,23	1733,50
354,70	1775,50
355,16	1551,50
355,63	1734,50
356,09	1897,50
356,55	1643,00
357,02	1512,00
357,48	2152,00
357,95	1630,50
358,41	2052,00
358,87	1789,50
359,34	1496,50
359,80	1822,50
360,27	1952,50
360,73	1776,50
361,19	1580,00
361,66	1869,00
362,12	2255,00
362,59	1896,00
363,05	1733,50
363,51	1820,00
363,98	1879,50
364,44	1861,00
364,91	1910,50
365,37	1864,00
365,83	2218,00
366,30	1601,00
366,76	2154,00
367,22	1574,50
367,69	2353,50
368,15	1916,50
368,61	1494,00
369,08	1533,00
369,54	1673,00
370,00	1662,00
370,47	2039,00
370,93	2102,00
371,39	1654,00
371,86	1761,50
372,32	1816,50
372,78	1671,50
373,25	1820,00
373,71	2410,00
374,17	1916,00
374,64	1633,00
375,10	1911,50
375,56	1679,00
376,03	1488,50
376,49	1822,00
376,95	1753,50
377,42	1833,50
377,88	1458,50
378,34	1512,00
378,80	1996,50
379,27	1515,50
379,73	1979,00
380,19	1848,50
380,66	1650,50
381,12	1670,00
381,58	1913,50
382,04	1625,50
382,51	1460,50
382,97	1696,50
383,43	1839,00
383,89	1531,00
384,36	1559,50
384,82	1861,00
385,28	1412,50
385,74	2026,50
386,21	1678,50
386,67	1526,50
387,13	1505,50
387,59	1826,50
388,06	1812,50
388,52	1751,00
388,98	1834,50
389,44	1741,50
389,91	1978,50
390,37	2167,00
390,83	1780,50
391,29	2147,50
391,75	2157,00
392,22	1511,00
392,68	1880,00
393,14	1724,50
393,60	2091,00
394,06	1886,50
394,53	3177,50
394,99	1829,00
395,45	1685,50
395,91	1807,00
396,37	2326,00
396,84	1668,00
397,30	1589,00
397,76	2075,00
398,22	1975,00
398,68	2209,50
399,14	1755,00
399,61	2065,00
400,07	1981,50
400,53	2099,50
400,99	2002,00
401,45	1950,50
401,91	2085,50
402,38	1879,00
402,84	1921,50
403,30	2728,00
403,76	2029,00
404,22	2383,00
404,68	1919,00
405,14	2307,50
405,61	3458,50
406,07	1940,00
406,53	2370,00
406,99	2564,50
407,45	2137,50
407,91	2432,00
408,37	2335,00
408,83	2320,00
409,29	2934,50
409,76	2442,50
410,22	2829,50
410,68	2785,00
411,14	3086,00
411,60	3203,00
412,06	3320,00
412,52	3268,50
412,98	3909,00
413,44	3731,00
413,90	4314,50
414,36	4629,50
414,83	4730,50
415,29	4426,00
415,75	5175,00
416,21	5405,00
416,67	6103,50
417,13	5888,00
417,59	6380,50
418,05	6886,50
418,51	6962,00
418,97	7943,00
419,43	8001,00
419,89	9076,00
420,35	9176,00
420,81	10372,50
421,27	10571,50
421,73	11181,00
422,19	12412,00
422,65	13081,50
423,11	14233,50
423,57	15264,00
424,03	16520,50
424,49	17260,00
424,96	18985,00
425,42	19845,50
425,88	21104,00
426,34	23044,50
426,80	24207,50
427,26	25616,50
427,72	27558,50
428,18	29343,00
428,64	31454,50
429,10	33098,50
429,56	35674,00
430,02	37478,50
430,47	39978,00
430,93	42298,50
431,39	45336,50
431,85	48015,50
432,31	50957,50
432,77	53965,50
433,23	57149,00
433,69	58997,50
434,15	58997,50
434,61	58997,50
435,07	58997,50
435,53	58997,50
435,99	58997,50
436,45	58997,50
436,91	58997,50
437,37	58997,50
437,83	58997,50
438,29	58997,50
438,75	58997,50
439,21	58997,50
439,67	58997,50
440,12	58997,50
440,58	58997,50
441,04	58997,50
441,50	58997,50
441,96	58997,50
442,42	58997,50
442,88	58997,50
443,34	58997,50
443,80	58997,50
444,26	58997,50
444,72	58997,50
445,17	58997,50
445,63	58997,50
446,09	58997,50
446,55	58997,50
447,01	58997,50
447,47	58997,50
447,93	58997,50
448,39	58997,50
448,85	58997,50
449,30	58997,50
449,76	58997,50
450,22	58997,50
450,68	58997,50
451,14	58997,50
451,60	58997,50
452,06	58997,50
452,51	58997,50
452,97	58997,50
453,43	58997,50
453,89	58997,50
454,35	58997,50
454,81	58997,50
455,26	58997,50
455,72	58997,50
456,18	58997,50
456,64	58997,50
457,10	58997,50
457,56	58997,50
458,01	58997,50
458,47	58997,50
458,93	58997,50
459,39	58997,50
459,85	58997,50
460,30	58997,50
460,76	58997,50
461,22	58997,50
461,68	58997,50
462,14	58997,50
462,59	58997,50
463,05	58997,50
463,51	58997,50
463,97	58997,50
464,43	58997,50
464,88	58997,50
465,34	58997,50
465,80	58997,50
466,26	58997,50
466,71	58997,50
467,17	58997,50
467,63	58997,50
468,09	58997,50
468,54	58997,50
469,00	58997,50
469,46	58997,50
469,92	58997,50
470,37	58997,50
470,83	58997,50
471,29	58997,50
471,75	58997,50
472,20	58997,50
472,66	58997,50
473,12	58997,50
473,58	58997,50
474,03	58997,50
474,49	58997,50
474,95	58997,50
475,40	58997,50
475,86	58997,50
476,32	58997,50
476,78	58997,50
477,23	58997,50
477,69	58997,50
478,15	58997,50
478,60	58997,50
479,06	58997,50
479,52	58997,50
479,97	58997,50
480,43	58997,50
480,89	58997,50
481,34	58997,50
481,80	58997,50
482,26	58997,50
482,71	58997,50
483,17	58997,50
483,63	58997,50
484,08	58997,50
484,54	58997,50
485,00	58997,50
485,45	58997,50
485,91	58997,50
486,37	58997,50
486,82	58997,50
487,28	58997,50
487,74	58997,50
488,19	58997,50
488,65	58997,50
489,10	58997,50
489,56	58997,50
490,02	58997,50
490,47	58997,50
490,93	58997,50
491,39	58997,50
491,84	58997,50
492,30	58997,50
492,75	58997,50
493,21	58997,50
493,67	58997,50
494,12	58997,50
494,58	58997,50
495,03	58997,50
495,49	58997,50
495,95	58997,50
496,40	58997,50
496,86	58997,50
497,31	58997,50
497,77	58997,50
498,23	58997,50
498,68	58997,50
499,14	58997,50
499,59	58997,50
500,05	58997,50
500,50	58997,50
500,96	58997,50
501,41	58997,50
501,87	58997,50
502,33	58997,50
502,78	58997,50
503,24	58997,50
503,69	58997,50
504,15	58997,50
504,60	58997,50
505,06	58997,50
505,51	58997,50
505,97	58997,50
506,42	58997,50
506,88	58997,50
507,33	58997,50
507,79	58997,50
508,24	58997,50
508,70	58997,50
509,15	58997,50
509,61	58997,50
510,06	58997,50
510,52	58997,50
510,97	58997,50
511,43	58997,50
511,88	58997,50
512,34	58997,50
512,79	58997,50
513,25	58997,50
513,70	58997,50
514,16	58997,50
514,61	58997,50
515,07	58997,50
515,52	58997,50
515,98	58997,50
516,43	58997,50
516,89	58997,50
517,34	58997,50
517,80	58997,50
518,25	58997,50
518,70	58997,50
519,16	58997,50
519,61	58997,50
520,07	58997,50
520,52	58997,50
520,98	58997,50
521,43	58997,50
521,89	58997,50
522,34	58997,50
522,79	58997,50
523,25	58997,50
523,70	58997,50
524,16	58997,50
524,61	58997,50
525,06	58997,50
525,52	58997,50
525,97	58997,50
526,43	58997,50
526,88	58997,50
527,33	58997,50
527,79	58997,50
528,24	58997,50
528,70	58997,50
529,15	58997,50
529,60	58997,50
530,06	58997,50
530,51	58997,50
530,97	58997,50
531,42	58997,50
531,87	58997,50
532,33	58997,50
532,78	58997,50
533,23	58997,50
533,69	58997,50
534,14	58997,50
534,59	58997,50
535,05	58997,50
535,50	58997,50
535,96	58997,50
536,41	58997,50
536,86	58997,50
537,32	58997,50
537,77	58997,50
538,22	58997,50
538,68	58997,50
539,13	58997,50
539,58	58997,50
540,03	58997,50
540,49	58997,50
540,94	58997,50
541,39	58997,50
541,85	58997,50
542,30	58997,50
542,75	58997,50
543,21	58997,50
543,66	58997,50
544,11	58997,50
544,57	58997,50
545,02	58997,50
545,47	58997,50
545,92	58997,50
546,38	58997,50
546,83	58997,50
547,28	58997,50
547,73	58997,50
548,19	58997,50
548,64	58997,50
549,09	58997,50
549,55	58997,50
550,00	58997,50
550,45	58997,50
550,90	58997,50
551,36	58997,50
551,81	58997,50
552,26	58997,50
552,71	58997,50
553,17	58997,50
553,62	58997,50
554,07	58997,50
554,52	58997,50
554,97	58997,50
555,43	58997,50
555,88	58997,50
556,33	58997,50
556,78	58997,50
557,24	58997,50
557,69	58997,50
558,14	58997,50
558,59	58997,50
559,04	58997,50
559,50	58997,50
559,95	58997,50
560,40	58997,50
560,85	58997,50
561,30	58997,50
561,76	58997,50
562,21	58997,50
562,66	58997,50
563,11	58997,50
563,56	58997,50
564,01	58997,50
564,47	58997,50
564,92	58997,50
565,37	58997,50
565,82	58997,50
566,27	58997,50
566,72	58997,50
567,18	58997,50
567,63	58997,50
568,08	58997,50
568,53	58997,50
568,98	58997,50
569,43	58997,50
569,88	58997,50
570,34	58997,50
570,79	58997,50
571,24	58997,50
571,69	58997,50
572,14	58997,50
572,59	58997,50
573,04	58997,50
573,49	58997,50
573,94	58997,50
574,40	58997,50
574,85	58997,50
575,30	58997,50
575,75	58997,50
576,20	58997,50
576,65	58997,50
577,10	58997,50
577,55	58997,50
578,00	58997,50
578,45	58997,50
578,91	58997,50
579,36	58997,50
579,81	58997,50
580,26	58997,50
580,71	58997,50
581,16	58997,50
581,61	58997,50
582,06	58997,50
582,51	58997,50
582,96	58997,50
583,41	58997,50
583,86	58997,50
584,31	58997,50
584,76	58997,50
585,21	58997,50
585,66	58997,50
586,11	58997,50
586,56	58997,50
587,01	58997,50
587,46	58997,50
587,92	58997,50
588,37	58997,50
588,82	58997,50
589,27	58997,50
589,72	58997,50
590,17	58997,50
590,62	58997,50
591,07	58997,50
591,52	58997,50
591,97	58997,50
592,42	58997,50
592,87	58997,50
593,32	58997,50
593,77	58997,50
594,22	58997,50
594,67	58997,50
595,12	58997,50
595,56	58997,50
596,01	58997,50
596,46	58997,50
596,91	58997,50
597,36	58997,50
597,81	58997,50
598,26	58997,50
598,71	58997,50
599,16	58997,50
599,61	58997,50
600,06	58997,50
600,51	58997,50
600,96	58997,50
601,41	58997,50
601,86	58997,50
602,31	58997,50
602,76	58997,50
603,21	58997,50
603,66	58997,50
604,11	58997,50
604,55	58997,50
605,00	58997,50
605,45	58997,50
605,90	58997,50
606,35	58997,50
606,80	58997,50
607,25	58997,50
607,70	58997,50
608,15	58997,50
608,60	58997,50
609,04	58997,50
609,49	58997,50
609,94	58997,50
610,39	58997,50
610,84	58997,50
611,29	58997,50
611,74	58997,50
612,19	58997,50
612,64	58997,50
613,08	58997,50
613,53	58997,50
613,98	58997,50
614,43	58997,50
614,88	58997,50
615,33	58997,50
615,78	58997,50
616,22	58997,50
616,67	58997,50
617,12	58997,50
617,57	58997,50
618,02	58997,50
618,47	58997,50
618,91	58997,50
619,36	58997,50
619,81	58997,50
620,26	58997,50
620,71	58997,50
621,16	58997,50
621,60	58997,50
622,05	58997,50
622,50	58997,50
622,95	58997,50
623,40	58997,50
623,84	58997,50
624,29	58997,50
624,74	58997,50
625,19	58997,50
625,64	58997,50
626,08	58997,50
626,53	58997,50
626,98	58997,50
627,43	58997,50
627,87	58997,50
628,32	58997,50
628,77	58997,50
629,22	58997,50
629,66	58997,50
630,11	58997,50
630,56	58997,50
631,01	58997,50
631,46	58997,50
631,90	58997,50
632,35	58997,50
632,80	58997,50
633,25	58997,50
633,69	58997,50
634,14	58997,50
634,59	58997,50
635,03	58997,50
635,48	58997,50
635,93	58997,50
636,38	58997,50
636,82	58997,50
637,27	58997,50
637,72	58997,50
638,16	58997,50
638,61	58997,50
639,06	58997,50
639,51	58997,50
639,95	58997,50
640,40	58997,50
640,85	58997,50
641,29	58997,50
641,74	58997,50
642,19	58997,50
642,63	58997,50
643,08	58997,50
643,53	58997,50
643,97	58997,50
644,42	58997,50
644,87	58997,50
645,31	58997,50
645,76	58997,50
646,21	58997,50
646,65	58997,50
647,10	58997,50
647,55	58997,50
647,99	58997,50
648,44	58997,50
648,89	58997,50
649,33	58997,50
649,78	58997,50
650,23	58997,50
650,67	58997,50
651,12	58997,50
651,56	58997,50
652,01	58997,50
652,46	58997,50
652,90	58997,50
653,35	58997,50
653,80	58997,50
654,24	58997,50
654,69	58997,50
655,13	58997,50
655,58	58997,50
656,03	58997,50
656,47	58997,50
656,92	58997,50
657,36	58997,50
657,81	58997,50
658,26	58997,50
658,70	58997,50
659,15	58997,50
659,59	58997,50
660,04	58997,50
660,48	58997,50
660,93	58997,50
661,38	58997,50
661,82	58997,50
662,27	58997,50
662,71	58997,50
663,16	58997,50
663,60	58997,50
664,05	58997,50
664,49	58997,50
664,94	58997,50
665,38	58997,50
665,83	58997,50
666,28	58997,50
666,72	58997,50
667,17	58997,50
667,61	58997,50
668,06	58997,50
668,50	58997,50
668,95	58997,50
669,39	58997,50
669,84	58997,50
670,28	58997,50
670,73	58997,50
671,17	58997,50
671,62	58997,50
672,06	58997,50
672,51	58669,00
672,95	58768,00
673,40	57852,50
673,84	56784,00
674,29	56499,50
674,73	55880,50
675,18	56108,50
675,62	54738,50
676,07	54507,00
676,51	54049,00
676,95	53192,00
677,40	53034,00
677,84	52777,00
678,29	51831,50
678,73	51192,50
679,18	51193,00
679,62	51407,50
680,07	49924,50
680,51	49342,00
680,96	48508,00
681,40	48028,00
681,84	47756,50
682,29	47079,00
682,73	46726,50
683,18	46133,00
683,62	46583,50
684,07	45449,00
684,51	45054,50
684,95	44560,50
685,40	43882,00
685,84	43486,50
686,29	43176,00
686,73	42612,50
687,17	42117,00
687,62	42010,50
688,06	41567,50
688,51	41186,50
688,95	40704,00
689,39	40218,50
689,84	39999,00
690,28	39447,50
690,73	39260,00
691,17	38829,50
691,61	38367,50
692,06	37727,50
692,50	37558,50
692,94	36820,50
693,39	36759,00
693,83	36272,00
694,27	36729,50
694,72	35845,50
695,16	34792,00
695,60	34846,00
696,05	34294,00
696,49	33766,50
696,94	33381,00
697,38	33042,00
697,82	32990,50
698,27	32565,00
698,71	32711,50
699,15	32229,50
699,59	31709,00
700,04	31477,50
700,48	32093,00
700,92	30525,50
701,37	30274,00
701,81	30455,00
702,25	29544,00
702,70	29237,50
703,14	29203,00
703,58	28907,50
704,03	28814,50
704,47	28472,00
704,91	27647,50
705,35	27390,50
705,80	27370,50
706,24	27004,00
706,68	27623,00
707,13	26174,00
707,57	26601,50
708,01	25962,00
708,45	25580,00
708,90	25528,50
709,34	24973,50
709,78	24565,00
710,22	24773,50
710,67	24428,00
711,11	24181,00
711,55	23486,50
711,99	23708,00
712,44	23415,50
712,88	23145,50
713,32	22857,50
713,76	22508,00
714,21	22148,00
714,65	21738,00
715,09	21604,00
715,53	21511,00
715,97	21192,50
716,42	21148,50
716,86	20874,00
717,30	20497,50
717,74	20055,00
718,18	20437,50
718,63	19565,00
719,07	19510,00
719,51	19646,50
719,95	19270,50
720,39	18911,50
720,84	18794,50
721,28	18441,00
721,72	18156,50
722,16	17701,00
722,60	17355,50
723,04	17595,50
723,49	17765,00
723,93	16936,50
724,37	16719,50
724,81	16852,00
725,25	16751,00
725,69	16430,50
726,14	16361,00
726,58	16064,50
727,02	15978,00
727,46	15693,50
727,90	15278,00
728,34	15074,50
728,78	15359,00
729,23	14860,00
729,67	15081,50
730,11	14537,50
730,55	14680,50
730,99	14586,50
731,43	14568,50
731,87	14733,50
732,31	13915,00
732,76	14240,50
733,20	13825,00
733,64	13576,50
734,08	13869,00
734,52	13287,50
734,96	13556,00
735,40	13076,50
735,84	13143,00
736,28	12979,00
736,72	12896,00
737,16	12733,00
737,61	12287,50
738,05	12515,50
738,49	12436,50
738,93	12133,50
739,37	12421,50
739,81	12263,00
740,25	12032,50
740,69	12697,00
741,13	11548,00
741,57	11512,00
742,01	11708,50
742,45	11528,50
742,89	11242,50
743,33	11052,50
743,77	11114,50
744,21	10776,00
744,65	11200,50
745,09	10815,50
745,53	10429,00
745,98	10672,00
746,42	10541,50
746,86	10368,50
747,30	10052,50
747,74	9824,00
748,18	9711,50
748,62	9772,00
749,06	10045,00
749,50	9892,50
749,94	9649,50
750,38	9763,00
750,82	9791,00
751,26	8806,00
751,70	8868,00
752,14	8655,50
752,58	9064,00
753,02	8811,00
753,45	8637,50
753,89	8804,50
754,33	9484,00
754,77	8651,50
755,21	8470,00
755,65	8180,50
756,09	8095,50
756,53	8143,00
756,97	8074,00
757,41	8511,50
757,85	7803,50
758,29	7860,50
758,73	7608,50
759,17	7697,00
759,61	7638,00
760,05	7640,50
760,49	7701,50
760,93	7861,00
761,37	7384,00
761,80	7698,00
762,24	7259,00
762,68	7073,00
763,12	7131,50
763,56	7071,50
764,00	6832,50
764,44	7011,00
764,88	7029,00
765,32	6841,00
765,76	6858,00
766,20	7076,50
766,63	6689,50
767,07	6258,50
767,51	6445,50
767,95	6664,50
768,39	6374,50
768,83	6204,50
769,27	6264,50
769,71	6419,00
770,14	6025,00
770,58	5944,00
771,02	5887,50
771,46	5966,00
771,90	5936,50
772,34	5908,00
772,78	5967,00
773,21	5719,00
773,65	6257,50
774,09	5404,00
774,53	5595,00
774,97	5436,00
775,41	5295,50
775,84	5668,50
776,28	5448,00
776,72	5474,00
777,16	4984,50
777,60	5120,00
778,04	5050,00
778,47	4673,50
778,91	5032,50
779,35	4853,00
779,79	5095,00
780,23	5005,00
780,66	4744,00
781,10	4881,00
781,54	4848,50
781,98	4985,00
782,42	4977,50
782,85	4670,50
783,29	4676,50
783,73	5397,00
784,17	4946,00
784,61	4499,00
785,04	4814,00
785,48	4643,50
785,92	4327,50
786,36	4512,50
786,79	4181,00
787,23	4383,00
787,67	4585,00
788,11	4594,50
788,54	4292,00
788,98	4154,50
789,42	4052,00
789,86	3972,50
790,29	4251,50
790,73	4250,00
791,17	4402,00
791,60	3856,50
792,04	3902,00
792,48	4114,50
792,92	3812,00
793,35	3813,00
793,79	3696,00
794,23	3856,50
794,67	3599,50
795,10	3613,50
795,54	4027,50
795,98	3544,00
796,41	3628,50
796,85	3495,00
797,29	4801,00
797,72	3876,00
798,16	3653,50
798,60	3666,50
799,03	3548,00
799,47	3331,50
799,91	3554,00
800,34	3376,00
800,78	3413,00
801,22	3264,50
801,65	3124,00
802,09	3353,00
802,53	3623,50
802,96	3377,00
803,40	3119,50
803,84	3735,50
804,27	3403,50
804,71	3094,50
805,15	3323,00
805,58	3182,00
806,02	2993,50
806,46	3372,00
806,89	3610,00
807,33	3183,00
807,76	3164,00
808,20	3013,00
808,64	2923,50
809,07	3630,50
809,51	3724,00
809,95	3572,00
810,38	3259,00
810,82	3529,00
811,25	2863,00
811,69	2922,00
812,13	2629,50
812,56	3003,00
813,00	2809,00
813,43	2691,00
813,87	2591,50
814,30	2867,50
814,74	3209,00
815,18	3744,00
815,61	2693,00
816,05	2539,50
816,48	2949,50
816,92	3267,50
817,35	2941,50
817,79	2718,50
818,23	2888,50
818,66	2799,00
819,10	2684,50
819,53	2457,50
819,97	2405,50
820,40	2466,00
820,84	2809,50
821,27	2600,50
821,71	2938,00
822,14	2430,50
822,58	2782,00
823,01	2906,00
823,45	2495,50
823,88	2595,00
824,32	2394,50
824,75	2489,00
825,19	2330,50
825,63	2828,00
826,06	2255,00
826,50	2458,50
826,93	2495,50
827,37	2201,00
827,80	2418,00
828,23	2378,00
828,67	2500,50
829,10	2570,00
829,54	2220,00
829,97	2321,50
830,41	1973,00
830,84	2391,50
831,28	2473,00
831,71	2634,50
832,15	2225,50
832,58	2519,00
833,02	2408,50
833,45	2184,00
833,89	2678,50
834,32	2178,00
834,75	2908,00
835,19	2601,00
835,62	2466,50
836,06	1991,50
836,49	2201,00
836,93	2190,50
837,36	2461,00
837,79	2417,50
838,23	2153,00
838,66	2027,00
839,10	2454,50
839,53	2141,00
839,97	2250,50
840,40	2101,00
840,83	2390,50
841,27	1987,00
841,70	2031,50
842,14	2262,50
842,57	2132,00
843,00	2576,00
843,44	2803,50
843,87	2161,00
844,31	2375,00
844,74	1700,00
845,17	1933,50
845,61	1839,50
846,04	2017,50
846,47	2211,00
846,91	2143,50
847,34	2252,50
847,77	2142,00
848,21	1883,50
848,64	2203,00
849,08	2061,00
849,51	2226,50
849,94	1861,00
850,38	1863,50
850,81	2061,00
851,24	1822,50
851,68	1873,00
852,11	1871,50
852,54	2127,00
852,98	2255,50
853,41	2196,00
853,84	1931,50
854,28	2287,50
854,71	1824,00
855,14	2107,50
855,57	2301,00
856,01	1864,50
856,44	1837,50
856,87	2129,00
857,31	1721,00
857,74	2116,00
858,17	1672,00
858,61	1831,50
859,04	2200,00
859,47	2331,00
859,90	1874,50
860,34	2058,50
860,77	1945,50
861,20	1695,50
861,63	2192,00
862,07	1537,00
862,50	1757,50
862,93	1897,50
863,37	1847,00
863,80	1914,00
864,23	2004,00
864,66	1736,00
865,10	1808,00
865,53	1993,00
865,96	1717,50
866,39	1729,50
866,82	2011,00
867,26	1710,00
867,69	1864,50
868,12	1817,00
868,55	1549,00
868,99	1815,00
869,42	1503,00
869,85	2038,50
870,28	1639,50
870,71	1850,00
871,15	1792,00
871,58	1649,00
872,01	1869,00
872,44	1783,50
872,87	2147,00
873,31	2531,00
873,74	1576,00
874,17	1785,00
874,60	1803,50
875,03	1645,50
875,47	1929,00
875,90	1942,50
876,33	1736,00
876,76	2093,00
877,19	1914,00
877,62	1660,00
878,06	1588,00
878,49	2021,50
878,92	1395,50
879,35	1843,00
879,78	1723,00
880,21	1722,00
880,64	1753,00
881,08	1736,50
881,51	1814,00
881,94	1733,00
882,37	2213,50
882,80	1539,00
883,23	1567,50
883,66	1670,00
884,09	1798,50
884,53	1971,00
884,96	1676,50
885,39	1743,50
885,82	1640,00
886,25	1661,00
886,68	1536,50
887,11	1889,50
887,54	1728,50
887,97	1888,00
888,40	1907,00
888,84	1641,00
889,27	1560,50
889,70	2203,00
890,13	1467,00
890,56	1589,00
890,99	1727,00
891,42	1602,50
891,85	2490,00
892,28	1378,50
892,71	1900,00
893,14	1542,50
893,57	1854,50
894,00	1813,00
894,43	1389,50
894,86	1537,50
895,29	1577,50
895,73	1409,50
896,16	1548,00
896,59	1720,00
897,02	1570,00
897,45	1840,00
897,88	1573,50
898,31	1489,00
898,74	1703,50
899,17	1786,00
899,60	1484,00
900,03	1442,50
900,46	1493,00
900,89	1679,00
901,32	1912,50
901,75	1475,50
902,18	1420,00
902,61	1445,00
903,04	1824,00
903,47	1737,00
903,90	1519,00
904,33	2113,00
904,76	2196,50
905,19	1478,50
905,62	1548,50
906,05	2077,50
906,48	1436,50
906,91	1759,50
907,34	1498,50
907,76	1544,00
908,19	1324,50
908,62	1965,50
909,05	1632,00
909,48	1896,50
909,91	1661,50
910,34	1560,00
910,77	1722,00
911,20	2040,50
911,63	1518,50
912,06	1309,50
912,49	1708,50
912,92	1566,50
913,35	1536,00
913,78	1494,50
914,21	1546,00
914,63	1616,00
915,06	1481,00
915,49	1681,50
915,92	1692,50
916,35	1556,00
916,78	1313,00
917,21	1368,50
917,64	1498,50
918,07	1372,50
918,50	1805,50
918,92	1456,00
919,35	1850,50
919,78	1405,50
920,21	1808,50
920,64	1426,50
921,07	1580,50
921,50	1540,50
921,93	1753,00
922,35	1797,50
922,78	1587,50
923,21	2047,50
923,64	1698,00
924,07	1474,00
924,50	1329,50
924,92	1285,50
925,35	1613,00
925,78	1950,50
926,21	1736,50
926,64	1215,00
927,07	1710,50
927,49	1381,50
927,92	1737,50
928,35	2137,50
928,78	1486,00
929,21	1732,00
929,64	1260,50
930,06	2157,00
930,49	1523,00
930,92	1284,50
931,35	1809,50
931,78	1446,00
932,20	1631,50
932,63	1751,50
933,06	1397,00
933,49	1668,00
933,92	1161,50
934,34	1997,50
934,77	1799,50
935,20	2292,50
935,63	1489,50
936,05	1840,50
936,48	1752,00
936,91	1709,00
937,34	1650,00
937,76	1283,00
938,19	1419,00
938,62	1410,50
939,05	1592,00
939,47	1256,00
939,90	1732,50
940,33	1376,00
940,76	1455,00
941,18	1664,50
941,61	1260,00
942,04	1526,00
942,47	1680,00
942,89	2087,00
943,32	1410,50
943,75	1781,00
944,17	1259,00
944,60	1466,00
945,03	1711,00
945,46	1306,50
945,88	1221,00
946,31	1671,00
946,74	1401,00
947,16	1621,00
947,59	1423,00
948,02	1584,50
948,44	1577,00
948,87	1872,00
949,30	1461,50
949,72	1520,50
950,15	1652,50
950,58	1233,00
951,00	1288,50
951,43	1287,00
951,86	2238,50
952,28	1858,00
952,71	1468,50
953,14	1419,50
953,56	1613,50
953,99	1249,50
954,42	1746,50
954,84	1410,00
955,27	2022,50
955,70	1259,50
956,12	1368,00
956,55	1352,00
956,98	1334,00
957,40	1423,50
957,83	1587,50
958,25	1296,50
958,68	1678,50
959,11	2338,50
959,53	1251,00
959,96	1594,50
960,38	1507,00
960,81	1390,00
961,24	1330,50
961,66	1370,50
962,09	1116,50
962,51	1415,50
962,94	1670,00
963,37	1645,00
963,79	1741,00
964,22	1684,00
964,64	1320,00
965,07	1472,00
965,49	1360,00
965,92	1528,00
966,35	1484,50
966,77	1352,00
967,20	1667,50
967,62	1376,50
968,05	1422,00
968,47	1677,50
968,90	1266,50
969,32	1337,00
969,75	1731,00
970,17	2663,50
970,60	1715,50
971,03	1439,00
971,45	1607,50
971,88	1348,50
972,30	1398,00
972,73	1594,50
973,15	1372,00
973,58	1459,00
974,00	1236,00
974,43	1315,00
974,85	1425,00
975,28	1586,00
975,70	1401,50
976,13	1613,00
976,55	1572,50
976,98	1325,00
977,40	1349,00
977,83	1329,50
978,25	1506,50
978,68	1273,00
979,10	1618,00
979,53	1495,50
979,95	1426,00
980,37	1446,00
980,80	1385,50
981,22	1714,00
981,65	1629,50
982,07	1328,50
982,50	1589,00
982,92	1697,50
983,35	1464,50
983,77	1495,50
984,20	1390,00
984,62	1432,50
985,04	1331,00
985,47	1698,50
985,89	1665,50
986,32	1295,50
986,74	1095,00
987,17	1456,50
987,59	1650,00
988,01	1415,00
988,44	1325,00
988,86	1541,50
989,29	1454,00
989,71	1549,50
990,13	1448,50
990,56	1588,50
990,98	1519,50
991,41	1382,50
991,83	1599,00
992,25	1527,50
992,68	1571,50
993,10	1960,00
993,53	1471,00
993,95	1276,50
994,37	1485,00
994,80	1376,50
995,22	1417,50
995,64	1587,50
996,07	1781,00
996,49	1508,50
996,91	1483,00
997,34	1189,50
997,76	1224,50
998,18	1119,00
998,61	1801,00
999,03	1738,50
999,45	1422,00
999,88	1532,00
1000,30	1250,50
1000,72	1933,50
1001,15	1501,50
1001,57	1509,00
1001,99	1838,00
1002,42	1340,50
1002,84	1467,50
1003,26	1684,50
1003,69	1499,00
1004,11	1571,00
1004,53	1482,50
1004,96	1624,00
1005,38	1302,00
1005,80	1539,00
1006,22	1532,00
1006,65	1838,50
1007,07	1438,00
1007,49	1260,50
1007,92	1571,00
1008,34	1482,00
1008,76	1321,00
1009,18	1130,50
1009,61	1420,50
1010,03	1281,50
1010,45	2446,50
1010,87	1749,50
1011,30	1694,50
1011,72	1508,50
1012,14	1636,50
1012,56	1751,50
1012,99	1405,00
1013,41	1649,00
1013,83	1537,50
1014,25	1590,50
1014,68	1587,50
1015,10	1252,00
1015,52	1853,00
1015,94	1137,50
1016,37	1673,00
1016,79	1342,00
1017,21	1477,00
1017,63	1297,50
1018,05	1580,50
1018,48	1406,50
1018,90	1410,00
1019,32	1463,50
1019,74	1101,50
1020,16	2262,50
1020,59	1770,50
1021,01	1663,50
1021,43	1393,00
1021,85	1463,00
1022,27	1527,50
1022,69	1579,00
1023,12	1634,50
1023,54	1435,00
1023,96	2467,50
1024,38	1763,00
1024,80	1701,50
1025,22	1645,50
1025,65	1579,50
1026,07	1615,00
1026,49	1654,00
1026,91	1335,50
1027,33	1303,50
1027,75	2122,00
1028,17	1648,00
1028,60	1612,50
1029,02	1481,00
1029,44	1564,00
1029,86	1337,50
1030,28	2132,00
1030,70	1523,50
1031,12	1442,00
1031,54	1624,50
1031,97	1915,00
1032,39	1280,50
1032,81	1548,50
1033,23	1718,50
1033,65	1462,00
1034,07	1772,00
1034,49	1368,50
1034,91	1363,50
1035,33	1632,00
1035,75	1785,50
1036,18	1380,50
1036,60	1933,00
1037,02	1456,50
1037,44	1393,00
1037,86	1629,50
1038,28	1220,00
1038,70	1685,50
1039,12	1758,50
1039,54	1680,00
1039,96	1869,00
1040,38	1896,00
1040,80	1490,50
1041,22	1470,00
1041,64	1607,00
1042,06	1462,50
1042,48	1972,00
1042,90	1888,50
1043,32	1788,50
1043,74	1790,50
1044,17	1515,50
1044,59	1775,00
1045,01	1357,00
1045,43	1513,50
1045,85	1441,00
1046,27	1252,50
1046,69	1566,00
1047,11	1708,50
1047,53	1347,50
1047,95	1619,00
1048,37	1782,50
1048,79	1380,50
1049,21	1843,00
1049,63	1696,50
1050,05	1751,00
1050,47	1485,00
1050,89	1546,50
1051,31	1703,00
1051,72	1773,50
1052,14	1953,00
1052,56	1827,00
1052,98	1562,00
1053,40	1747,00
1053,82	1113,00
1054,24	1567,50
1054,66	1182,00
1055,08	1494,00
1055,50	1412,50
1055,92	1640,50
1056,34	1743,50
1056,76	2114,00
1057,18	1840,50
1057,60	1894,00
1058,02	1606,50
1058,44	2718,00
1058,86	1394,50
1059,28	1681,50
1059,69	1795,50
1060,11	1517,00
1060,53	1532,00
1060,95	1460,50
1061,37	1772,50
1061,79	1664,50
1062,21	1516,50
1062,63	1800,50
1063,05	2014,00
1063,47	1660,00
1063,88	1516,50
1064,30	1413,50
1064,72	1868,50
1065,14	1876,00
1065,56	1536,00
1065,98	1412,00
1066,40	1285,50
1066,82	1807,50
1067,23	1617,00
1067,65	1641,00
1068,07	1660,50
1068,49	1570,50
1068,91	2100,00
1069,33	1650,00
1069,75	1483,50
1070,16	1353,00
1070,58	1855,50
1071,00	1925,00
1071,42	1840,50
1071,84	1549,50
1072,26	1789,00
1072,67	1476,00
1073,09	1428,00
1073,51	1339,50
1073,93	1714,50
1074,35	1506,00
1074,77	1327,00
1075,18	1548,50
1075,60	1551,00
1076,02	1567,00
1076,44	1438,00
1076,86	1455,50
1077,27	1589,00
1077,69	1830,50
1078,11	1509,00
1078,53	1846,50
1078,94	2032,00
1079,36	1192,00
1079,78	1696,00
1080,20	1530,00
1080,62	1587,00
1081,03	1755,50
1081,45	1587,50
1081,87	1537,50
1082,29	1673,50
1082,70	1596,50
1083,12	1587,00
1083,54	1598,50
1083,96	1667,00
1084,37	1928,00
1084,79	1650,50
1085,21	1516,00
1085,63	1927,00
1086,04	1413,50
1086,46	1535,00
1086,88	1718,00
1087,30	1296,00
1087,71	1860,00
1088,13	10978,00
1088,55	1701,00
1088,96	1434,00
1089,38	1558,50
1089,80	1518,00
1090,22	1924,50
1090,63	1641,50
1091,05	1414,50
1091,47	1568,00
1091,88	1520,50
1092,30	1382,50
1092,72	1575,00
1093,13	1541,50
1093,55	1637,00
1093,97	1537,50
1094,38	1629,50
1094,80	1524,50
1095,22	1653,50
1095,63	1504,50
1096,05	1609,50
1096,47	1671,50
1096,88	1380,50
1097,30	1603,50
1097,72	1474,50
1098,13	1787,50
1098,55	1667,00
1098,97	1766,00
1099,38	1659,00
1099,80	1595,50
1100,21	1445,50
1100,63	1515,00
1101,05	1544,00
1101,46	1629,00
1101,88	1391,00
1102,30	1471,50
1102,71	1603,50
1103,13	1565,00
1103,54	1692,00
1103,96	1473,00
1104,38	1973,00
1104,79	1160,00
1105,21	1569,50
1105,62	1571,50
1106,04	1461,50
1106,46	1561,00
1106,87	1145,00
1107,29	1287,00
1107,70	1817,50
1108,12	1261,50
1108,54	1701,00
1108,95	1692,50
1109,37	1631,50
1109,78	1189,50
1110,20	1437,50
1110,61	1218,00
1111,03	1218,00
1111,44	1218,00
1111,86	1218,00
1112,28	1218,00
1112,69	1218,00
1113,11	1218,00
1113,52	1218,00
1113,94	1218,00
1114,35	1218,00
1114,77	1218,00
1115,18	1218,00
1115,60	1218,00
1116,01	1218,00
1116,43	1218,00
1116,84	1218,00
1117,26	1218,00
1117,67	1218,00
1118,09	1218,00
1118,50	1218,00
1118,92	1218,00
>>>>>End Processed Spectral Data<<<<<
