SpectraSuite Data File
++++++++++++++++++++++++++++++++++++
Date: Thu Jan 16 15:23:20 EET 2014
User: OO Maya
Dark Spectrum Present: No
Reference Spectrum Present: No
Number of Sampled Component Spectra: 1
Spectrometers: MAYP11278
Integration Time (usec): 5000000 (MAYP11278)
Spectra Averaged: 1 (MAYP11278)
Boxcar Smoothing: 0 (MAYP11278)
Correct for Electrical Dark: No (MAYP11278)
Strobe/Lamp Enabled: No (MAYP11278)
Correct for Detector Non-linearity: No (MAYP11278)
Correct for Stray Light: No (MAYP11278)
Number of Pixels in Processed Spectrum: 2068
>>>>>Begin Processed Spectral Data<<<<<
188,05	2277,00
188,53	2207,00
189,01	2177,00
189,49	2173,00
189,96	5607,00
190,44	5912,00
190,92	5886,00
191,40	5950,00
191,88	6313,00
192,36	5973,00
192,83	5915,00
193,31	5690,00
193,79	5893,00
194,27	5908,00
194,75	6122,00
195,23	5901,00
195,70	6248,00
196,18	5868,00
196,66	6010,00
197,14	6896,00
197,62	5964,00
198,09	5808,00
198,57	5860,00
199,05	5827,00
199,53	6083,00
200,01	6157,00
200,48	5945,00
200,96	5968,00
201,44	6219,00
201,92	6249,00
202,39	6258,00
202,87	5798,00
203,35	6126,00
203,83	5780,00
204,31	6269,00
204,78	6383,00
205,26	5909,00
205,74	5907,00
206,22	6434,00
206,69	5905,00
207,17	6161,00
207,65	6756,00
208,13	6075,00
208,60	6190,00
209,08	5984,00
209,56	6350,00
210,04	6175,00
210,51	6064,00
210,99	6017,00
211,47	6218,00
211,94	6029,00
212,42	5855,00
212,90	6656,00
213,38	6195,00
213,85	5996,00
214,33	6633,00
214,81	6192,00
215,29	6562,00
215,76	6230,00
216,24	6297,00
216,72	6259,00
217,19	6277,00
217,67	5963,00
218,15	6141,00
218,62	6516,00
219,10	5764,00
219,58	5973,00
220,05	5957,00
220,53	6023,00
221,01	7431,00
221,49	5960,00
221,96	6426,00
222,44	5913,00
222,92	6372,00
223,39	6058,00
223,87	6424,00
224,35	6051,00
224,82	6037,00
225,30	5785,00
225,78	6056,00
226,25	5931,00
226,73	6186,00
227,21	6445,00
227,68	6110,00
228,16	6214,00
228,63	6323,00
229,11	6271,00
229,59	6079,00
230,06	6130,00
230,54	5917,00
231,02	6368,00
231,49	6401,00
231,97	6240,00
232,45	6270,00
232,92	5915,00
233,40	6206,00
233,87	6326,00
234,35	7322,00
234,83	6289,00
235,30	5978,00
235,78	5956,00
236,25	5849,00
236,73	6450,00
237,21	6825,00
237,68	6016,00
238,16	6217,00
238,63	6240,00
239,11	6267,00
239,59	6177,00
240,06	5826,00
240,54	6349,00
241,01	6561,00
241,49	6326,00
241,96	6087,00
242,44	6483,00
242,92	6513,00
243,39	5841,00
243,87	5989,00
244,34	6467,00
244,82	6590,00
245,29	6092,00
245,77	6597,00
246,24	6505,00
246,72	6079,00
247,20	6268,00
247,67	6163,00
248,15	6254,00
248,62	6305,00
249,10	5816,00
249,57	6226,00
250,05	6448,00
250,52	6260,00
251,00	6584,00
251,47	6277,00
251,95	6883,00
252,42	6624,00
252,90	6083,00
253,37	6582,00
253,85	6299,00
254,32	6192,00
254,80	6311,00
255,27	6235,00
255,75	6454,00
256,22	6049,00
256,70	6308,00
257,17	6348,00
257,65	6558,00
258,12	7179,00
258,60	6259,00
259,07	6038,00
259,55	6271,00
260,02	6431,00
260,50	6787,00
260,97	6161,00
261,45	6103,00
261,92	6514,00
262,40	5954,00
262,87	6229,00
263,35	6189,00
263,82	5883,00
264,30	6531,00
264,77	6579,00
265,25	6093,00
265,72	6253,00
266,19	6340,00
266,67	6394,00
267,14	6072,00
267,62	6169,00
268,09	6260,00
268,57	6313,00
269,04	5764,00
269,51	6005,00
269,99	6093,00
270,46	6393,00
270,94	6504,00
271,41	6107,00
271,89	6262,00
272,36	5937,00
272,83	5903,00
273,31	5673,00
273,78	6195,00
274,26	7421,00
274,73	6486,00
275,20	6500,00
275,68	6088,00
276,15	6208,00
276,63	6361,00
277,10	6525,00
277,57	5826,00
278,05	6229,00
278,52	5943,00
279,00	7657,00
279,47	6118,00
279,94	6077,00
280,42	7516,00
280,89	6504,00
281,36	7310,00
281,84	6067,00
282,31	6529,00
282,78	6153,00
283,26	6200,00
283,73	6461,00
284,21	6001,00
284,68	5994,00
285,15	6524,00
285,63	6210,00
286,10	6329,00
286,57	6389,00
287,05	5943,00
287,52	6439,00
287,99	6783,00
288,47	6230,00
288,94	6409,00
289,41	5689,00
289,89	6716,00
290,36	6020,00
290,83	6347,00
291,30	6063,00
291,78	6381,00
292,25	6935,00
292,72	6093,00
293,20	6611,00
293,67	6159,00
294,14	6470,00
294,62	6426,00
295,09	6139,00
295,56	6217,00
296,03	6377,00
296,51	6889,00
296,98	6801,00
297,45	6491,00
297,93	6363,00
298,40	6366,00
298,87	6089,00
299,34	6748,00
299,82	6261,00
300,29	6397,00
300,76	6127,00
301,23	6608,00
301,71	6503,00
302,18	6616,00
302,65	6059,00
303,12	6557,00
303,60	6537,00
304,07	6067,00
304,54	6031,00
305,01	6043,00
305,49	6365,00
305,96	6466,00
306,43	6366,00
306,90	6474,00
307,38	6186,00
307,85	6093,00
308,32	6365,00
308,79	6156,00
309,27	6552,00
309,74	6553,00
310,21	6393,00
310,68	6309,00
311,15	6424,00
311,63	6123,00
312,10	6557,00
312,57	6261,00
313,04	6887,00
313,51	6104,00
313,99	6166,00
314,46	6389,00
314,93	6079,00
315,40	6068,00
315,87	6643,00
316,34	6524,00
316,82	6419,00
317,29	6514,00
317,76	6388,00
318,23	7159,00
318,70	6326,00
319,17	6267,00
319,65	5918,00
320,12	6435,00
320,59	6940,00
321,06	6563,00
321,53	6175,00
322,00	5824,00
322,48	6109,00
322,95	6878,00
323,42	6194,00
323,89	7023,00
324,36	5958,00
324,83	6344,00
325,30	6341,00
325,78	6326,00
326,25	6303,00
326,72	6171,00
327,19	6495,00
327,66	6419,00
328,13	6520,00
328,60	6503,00
329,07	6352,00
329,54	6238,00
330,02	6241,00
330,49	6171,00
330,96	6582,00
331,43	6472,00
331,90	6843,00
332,37	6155,00
332,84	7029,00
333,31	6618,00
333,78	6574,00
334,25	6838,00
334,72	6554,00
335,20	6599,00
335,67	7662,00
336,14	6160,00
336,61	6390,00
337,08	6398,00
337,55	6545,00
338,02	6404,00
338,49	6345,00
338,96	6941,00
339,43	6767,00
339,90	6255,00
340,37	6322,00
340,84	6334,00
341,31	6690,00
341,78	6845,00
342,25	6414,00
342,72	6727,00
343,19	6862,00
343,67	6745,00
344,14	6628,00
344,61	6711,00
345,08	6529,00
345,55	6807,00
346,02	7034,00
346,49	6725,00
346,96	6744,00
347,43	7597,00
347,90	7008,00
348,37	7505,00
348,84	7442,00
349,31	7090,00
349,78	7614,00
350,25	8080,00
350,72	8060,00
351,19	8030,00
351,66	8649,00
352,13	9401,00
352,60	9403,00
353,07	9825,00
353,54	10506,00
354,01	11656,00
354,48	12435,00
354,94	13793,00
355,41	15283,00
355,88	17729,00
356,35	19530,00
356,82	23206,00
357,29	26054,00
357,76	31609,00
358,23	36302,00
358,70	41529,00
359,17	47899,00
359,64	54799,00
360,11	61736,00
360,58	64000,00
361,05	64000,00
361,52	64000,00
361,99	64000,00
362,46	64000,00
362,93	64000,00
363,39	64000,00
363,86	64000,00
364,33	64000,00
364,80	64000,00
365,27	64000,00
365,74	64000,00
366,21	64000,00
366,68	64000,00
367,15	64000,00
367,62	64000,00
368,09	64000,00
368,55	64000,00
369,02	64000,00
369,49	64000,00
369,96	64000,00
370,43	64000,00
370,90	64000,00
371,37	64000,00
371,84	64000,00
372,31	64000,00
372,77	64000,00
373,24	64000,00
373,71	64000,00
374,18	64000,00
374,65	64000,00
375,12	64000,00
375,59	64000,00
376,05	64000,00
376,52	64000,00
376,99	64000,00
377,46	64000,00
377,93	64000,00
378,40	64000,00
378,86	64000,00
379,33	64000,00
379,80	64000,00
380,27	64000,00
380,74	64000,00
381,21	64000,00
381,67	64000,00
382,14	64000,00
382,61	64000,00
383,08	64000,00
383,55	64000,00
384,02	64000,00
384,48	64000,00
384,95	64000,00
385,42	64000,00
385,89	64000,00
386,36	64000,00
386,82	64000,00
387,29	61964,00
387,76	59677,00
388,23	57919,00
388,69	55276,00
389,16	53172,00
389,63	50422,00
390,10	47860,00
390,57	45076,00
391,03	42279,00
391,50	39412,00
391,97	37177,00
392,44	34470,00
392,90	32288,00
393,37	30063,00
393,84	29030,00
394,31	26522,00
394,77	25419,00
395,24	23470,00
395,71	22926,00
396,18	23050,00
396,64	20282,00
397,11	19950,00
397,58	19471,00
398,05	17993,00
398,51	17702,00
398,98	16975,00
399,45	16208,00
399,92	16482,00
400,38	15284,00
400,85	14943,00
401,32	14500,00
401,78	14133,00
402,25	13723,00
402,72	13078,00
403,18	12460,00
403,65	12636,00
404,12	11857,00
404,59	11851,00
405,05	11632,00
405,52	11189,00
405,99	10308,00
406,45	10628,00
406,92	10173,00
407,39	10464,00
407,85	9636,00
408,32	9550,00
408,79	9426,00
409,25	8832,00
409,72	9369,00
410,19	8618,00
410,65	9145,00
411,12	8459,00
411,59	9022,00
412,05	8371,00
412,52	7971,00
412,99	8443,00
413,45	8123,00
413,92	8224,00
414,39	8259,00
414,85	8533,00
415,32	7898,00
415,78	8503,00
416,25	7875,00
416,72	7829,00
417,18	8316,00
417,65	7775,00
418,12	7559,00
418,58	7689,00
419,05	7547,00
419,51	7682,00
419,98	7207,00
420,45	7680,00
420,91	7076,00
421,38	7329,00
421,84	7159,00
422,31	7437,00
422,78	7115,00
423,24	7150,00
423,71	7354,00
424,17	7503,00
424,64	7184,00
425,11	7424,00
425,57	7202,00
426,04	7489,00
426,50	7024,00
426,97	7435,00
427,43	7382,00
427,90	7334,00
428,37	6840,00
428,83	7326,00
429,30	7205,00
429,76	7162,00
430,23	7132,00
430,69	8214,00
431,16	6697,00
431,62	6888,00
432,09	7509,00
432,55	7286,00
433,02	6901,00
433,48	6778,00
433,95	6957,00
434,42	6847,00
434,88	7139,00
435,35	6609,00
435,81	7105,00
436,28	7008,00
436,74	6560,00
437,21	7165,00
437,67	7020,00
438,14	6936,00
438,60	6653,00
439,07	6744,00
439,53	8245,00
440,00	6989,00
440,46	7168,00
440,93	7264,00
441,39	6624,00
441,86	6760,00
442,32	7665,00
442,79	6541,00
443,25	6889,00
443,72	6864,00
444,18	6534,00
444,64	7372,00
445,11	6967,00
445,57	6791,00
446,04	6800,00
446,50	6905,00
446,97	6762,00
447,43	6842,00
447,90	6630,00
448,36	6574,00
448,83	6958,00
449,29	6931,00
449,75	6718,00
450,22	6622,00
450,68	6441,00
451,15	6621,00
451,61	6824,00
452,08	6931,00
452,54	6562,00
453,00	7140,00
453,47	6802,00
453,93	6769,00
454,40	6823,00
454,86	6883,00
455,32	6650,00
455,79	6812,00
456,25	7028,00
456,72	6665,00
457,18	7234,00
457,64	6673,00
458,11	6768,00
458,57	6439,00
459,04	6853,00
459,50	6785,00
459,96	6878,00
460,43	6696,00
460,89	6487,00
461,36	7288,00
461,82	7119,00
462,28	6529,00
462,75	6360,00
463,21	7123,00
463,67	6671,00
464,14	6798,00
464,60	6826,00
465,06	6516,00
465,53	6638,00
465,99	7061,00
466,45	6823,00
466,92	6945,00
467,38	6950,00
467,84	6779,00
468,31	6791,00
468,77	6891,00
469,23	6765,00
469,70	6571,00
470,16	6914,00
470,62	6889,00
471,09	6641,00
471,55	6789,00
472,01	6466,00
472,48	6698,00
472,94	6696,00
473,40	7307,00
473,87	6779,00
474,33	6663,00
474,79	6826,00
475,25	6553,00
475,72	6993,00
476,18	6847,00
476,64	6954,00
477,11	6889,00
477,57	6902,00
478,03	7374,00
478,49	6915,00
478,96	7284,00
479,42	6764,00
479,88	7564,00
480,35	7064,00
480,81	6965,00
481,27	6817,00
481,73	6936,00
482,20	7007,00
482,66	6653,00
483,12	6955,00
483,58	6623,00
484,05	6869,00
484,51	7520,00
484,97	7081,00
485,43	6946,00
485,89	6638,00
486,36	6919,00
486,82	6594,00
487,28	7172,00
487,74	6640,00
488,21	6749,00
488,67	6895,00
489,13	7073,00
489,59	7089,00
490,05	7385,00
490,52	6787,00
490,98	7129,00
491,44	6809,00
491,90	6957,00
492,36	6715,00
492,83	7491,00
493,29	7214,00
493,75	7089,00
494,21	6936,00
494,67	7088,00
495,14	7032,00
495,60	6986,00
496,06	7231,00
496,52	7144,00
496,98	7206,00
497,44	7879,00
497,91	7597,00
498,37	7146,00
498,83	7343,00
499,29	7227,00
499,75	8155,00
500,21	7339,00
500,67	7197,00
501,14	7322,00
501,60	7329,00
502,06	7693,00
502,52	7482,00
502,98	7430,00
503,44	7449,00
503,90	7667,00
504,37	7302,00
504,83	7616,00
505,29	7613,00
505,75	7248,00
506,21	7502,00
506,67	7850,00
507,13	7533,00
507,59	7825,00
508,05	7767,00
508,51	7472,00
508,98	7420,00
509,44	7253,00
509,90	7553,00
510,36	7709,00
510,82	7475,00
511,28	8089,00
511,74	8162,00
512,20	7546,00
512,66	7345,00
513,12	7639,00
513,58	7914,00
514,04	7257,00
514,51	8011,00
514,97	8355,00
515,43	7431,00
515,89	7926,00
516,35	8224,00
516,81	8058,00
517,27	8661,00
517,73	8010,00
518,19	7931,00
518,65	9232,00
519,11	8004,00
519,57	7731,00
520,03	7679,00
520,49	7922,00
520,95	8089,00
521,41	8181,00
521,87	8300,00
522,33	8035,00
522,79	7756,00
523,25	8643,00
523,71	8306,00
524,17	7988,00
524,63	8559,00
525,09	8302,00
525,55	8339,00
526,01	8585,00
526,47	8270,00
526,93	8213,00
527,39	8058,00
527,85	8128,00
528,31	8490,00
528,77	8356,00
529,23	8107,00
529,69	7952,00
530,15	8500,00
530,61	8472,00
531,07	7853,00
531,53	8778,00
531,99	8290,00
532,45	8306,00
532,91	8263,00
533,37	8451,00
533,83	8251,00
534,29	8047,00
534,75	8230,00
535,21	8189,00
535,67	8414,00
536,12	8245,00
536,58	8537,00
537,04	8050,00
537,50	8653,00
537,96	8365,00
538,42	8432,00
538,88	9008,00
539,34	8549,00
539,80	10357,00
540,26	8051,00
540,72	8953,00
541,18	8606,00
541,63	8172,00
542,09	8631,00
542,55	8596,00
543,01	8356,00
543,47	9368,00
543,93	8120,00
544,39	9190,00
544,85	8709,00
545,31	8429,00
545,76	8346,00
546,22	8764,00
546,68	8523,00
547,14	8680,00
547,60	8628,00
548,06	8630,00
548,52	8408,00
548,98	8437,00
549,43	8311,00
549,89	9294,00
550,35	8472,00
550,81	8210,00
551,27	8724,00
551,73	8612,00
552,19	9131,00
552,64	8636,00
553,10	8347,00
553,56	8678,00
554,02	8405,00
554,48	8272,00
554,93	8708,00
555,39	8607,00
555,85	9266,00
556,31	8559,00
556,77	8942,00
557,23	8167,00
557,68	8632,00
558,14	9270,00
558,60	8427,00
559,06	8513,00
559,52	8361,00
559,97	8270,00
560,43	8230,00
560,89	8657,00
561,35	8461,00
561,81	8494,00
562,26	8343,00
562,72	8271,00
563,18	8582,00
563,64	8859,00
564,09	8276,00
564,55	8703,00
565,01	8452,00
565,47	8559,00
565,92	8538,00
566,38	8876,00
566,84	8444,00
567,30	8433,00
567,75	8587,00
568,21	8889,00
568,67	8396,00
569,13	8515,00
569,58	8731,00
570,04	8482,00
570,50	8483,00
570,96	8781,00
571,41	8723,00
571,87	8470,00
572,33	8559,00
572,78	8618,00
573,24	8348,00
573,70	8322,00
574,16	8571,00
574,61	8901,00
575,07	8735,00
575,53	8224,00
575,98	8472,00
576,44	7975,00
576,90	8846,00
577,36	8349,00
577,81	8385,00
578,27	8134,00
578,73	8933,00
579,18	8422,00
579,64	8293,00
580,10	8558,00
580,55	8554,00
581,01	8370,00
581,47	8435,00
581,92	8538,00
582,38	8389,00
582,84	8076,00
583,29	8361,00
583,75	8497,00
584,21	8347,00
584,66	8533,00
585,12	8235,00
585,57	9216,00
586,03	8327,00
586,49	8235,00
586,94	8280,00
587,40	8225,00
587,86	8653,00
588,31	7983,00
588,77	8448,00
589,22	8239,00
589,68	8111,00
590,14	8297,00
590,59	8490,00
591,05	8166,00
591,51	7919,00
591,96	8673,00
592,42	8139,00
592,87	8338,00
593,33	8222,00
593,78	8559,00
594,24	8239,00
594,70	8124,00
595,15	8545,00
595,61	8106,00
596,06	7874,00
596,52	8747,00
596,98	8353,00
597,43	8599,00
597,89	8144,00
598,34	7822,00
598,80	8122,00
599,25	8526,00
599,71	7948,00
600,16	8249,00
600,62	8425,00
601,08	8316,00
601,53	8289,00
601,99	7712,00
602,44	9021,00
602,90	7967,00
603,35	8049,00
603,81	7556,00
604,26	7527,00
604,72	8177,00
605,17	7925,00
605,63	8192,00
606,08	7955,00
606,54	7612,00
606,99	8025,00
607,45	7808,00
607,90	7935,00
608,36	8049,00
608,81	7907,00
609,27	8682,00
609,72	8208,00
610,18	7893,00
610,63	7798,00
611,09	7877,00
611,54	7614,00
612,00	8443,00
612,45	8040,00
612,91	7900,00
613,36	8940,00
613,82	7520,00
614,27	7532,00
614,73	7488,00
615,18	7571,00
615,64	7714,00
616,09	7744,00
616,54	7514,00
617,00	7719,00
617,45	7716,00
617,91	8011,00
618,36	7508,00
618,82	7591,00
619,27	7704,00
619,72	7924,00
620,18	7590,00
620,63	7950,00
621,09	7948,00
621,54	7664,00
622,00	7948,00
622,45	8116,00
622,90	7988,00
623,36	7495,00
623,81	7426,00
624,27	7920,00
624,72	7325,00
625,17	7556,00
625,63	7640,00
626,08	7366,00
626,54	7539,00
626,99	7659,00
627,44	7286,00
627,90	7733,00
628,35	7792,00
628,81	7079,00
629,26	7536,00
629,71	7545,00
630,17	7305,00
630,62	7672,00
631,07	7414,00
631,53	7754,00
631,98	7598,00
632,43	7881,00
632,89	7276,00
633,34	7358,00
633,79	7307,00
634,25	7219,00
634,70	7170,00
635,15	7374,00
635,61	7206,00
636,06	7034,00
636,51	7408,00
636,97	7319,00
637,42	7118,00
637,87	7553,00
638,33	7636,00
638,78	7171,00
639,23	7323,00
639,69	6990,00
640,14	6848,00
640,59	7300,00
641,05	7536,00
641,50	6932,00
641,95	7193,00
642,40	7252,00
642,86	6938,00
643,31	7153,00
643,76	7431,00
644,22	7015,00
644,67	6961,00
645,12	7090,00
645,57	6949,00
646,03	7173,00
646,48	7211,00
646,93	7277,00
647,38	7432,00
647,84	7181,00
648,29	7249,00
648,74	6873,00
649,19	7497,00
649,65	7297,00
650,10	8577,00
650,55	6893,00
651,00	6867,00
651,46	6955,00
651,91	7093,00
652,36	6833,00
652,81	7037,00
653,27	6941,00
653,72	6890,00
654,17	7111,00
654,62	7142,00
655,07	6955,00
655,53	6769,00
655,98	7209,00
656,43	6803,00
656,88	6956,00
657,33	7119,00
657,79	7229,00
658,24	6739,00
658,69	6992,00
659,14	6695,00
659,59	8560,00
660,05	6763,00
660,50	7376,00
660,95	6973,00
661,40	6752,00
661,85	6935,00
662,30	6661,00
662,76	6514,00
663,21	7002,00
663,66	6859,00
664,11	6813,00
664,56	6864,00
665,01	6581,00
665,47	6924,00
665,92	6591,00
666,37	6937,00
666,82	6884,00
667,27	7792,00
667,72	7266,00
668,17	6637,00
668,62	6941,00
669,08	6590,00
669,53	7539,00
669,98	6412,00
670,43	6614,00
670,88	7174,00
671,33	6824,00
671,78	7369,00
672,23	7696,00
672,69	6848,00
673,14	6804,00
673,59	7154,00
674,04	7961,00
674,49	6906,00
674,94	6781,00
675,39	6337,00
675,84	6539,00
676,29	6804,00
676,74	6636,00
677,19	6641,00
677,64	6686,00
678,10	7761,00
678,55	6590,00
679,00	6672,00
679,45	6743,00
679,90	6531,00
680,35	6684,00
680,80	6747,00
681,25	6164,00
681,70	6181,00
682,15	6605,00
682,60	6661,00
683,05	6918,00
683,50	6829,00
683,95	6741,00
684,40	7052,00
684,85	6782,00
685,30	6746,00
685,75	6811,00
686,20	6610,00
686,65	6393,00
687,10	6642,00
687,55	6387,00
688,00	6710,00
688,45	6497,00
688,90	7567,00
689,35	6837,00
689,80	6182,00
690,25	6559,00
690,70	6622,00
691,15	6139,00
691,60	6530,00
692,05	6202,00
692,50	6607,00
692,95	6529,00
693,40	6752,00
693,85	6749,00
694,30	6593,00
694,75	6637,00
695,20	8214,00
695,65	6610,00
696,10	6582,00
696,55	7187,00
697,00	6558,00
697,45	6441,00
697,90	6674,00
698,35	6339,00
698,80	6884,00
699,24	6722,00
699,69	6400,00
700,14	6462,00
700,59	6774,00
701,04	6734,00
701,49	8037,00
701,94	6204,00
702,39	6988,00
702,84	6339,00
703,29	6377,00
703,74	6578,00
704,19	6412,00
704,63	6330,00
705,08	6856,00
705,53	6779,00
705,98	6763,00
706,43	6164,00
706,88	6755,00
707,33	6460,00
707,78	6448,00
708,22	6528,00
708,67	6747,00
709,12	6533,00
709,57	6354,00
710,02	6443,00
710,47	6443,00
710,92	6229,00
711,37	6651,00
711,81	6485,00
712,26	6481,00
712,71	6216,00
713,16	7212,00
713,61	6414,00
714,06	6431,00
714,50	6892,00
714,95	6668,00
715,40	6422,00
715,85	6530,00
716,30	6240,00
716,75	6356,00
717,19	6099,00
717,64	5982,00
718,09	6573,00
718,54	6972,00
718,99	6064,00
719,43	6086,00
719,88	6421,00
720,33	6265,00
720,78	6150,00
721,23	6433,00
721,67	6161,00
722,12	6533,00
722,57	6354,00
723,02	6041,00
723,47	5969,00
723,91	6380,00
724,36	5917,00
724,81	6528,00
725,26	5851,00
725,70	6345,00
726,15	6271,00
726,60	6433,00
727,05	7000,00
727,49	6080,00
727,94	6723,00
728,39	6448,00
728,84	6226,00
729,28	6723,00
729,73	6171,00
730,18	6568,00
730,63	6004,00
731,07	6362,00
731,52	6506,00
731,97	6426,00
732,41	6417,00
732,86	6103,00
733,31	6554,00
733,76	6479,00
734,20	6202,00
734,65	6612,00
735,10	6431,00
735,54	6330,00
735,99	7373,00
736,44	6064,00
736,89	6352,00
737,33	6631,00
737,78	6505,00
738,23	6323,00
738,67	6224,00
739,12	6355,00
739,57	5969,00
740,01	6707,00
740,46	6389,00
740,91	6041,00
741,35	6393,00
741,80	6495,00
742,25	6254,00
742,69	6296,00
743,14	6072,00
743,59	6063,00
744,03	6291,00
744,48	6624,00
744,92	6575,00
745,37	6516,00
745,82	6556,00
746,26	6807,00
746,71	5714,00
747,16	5966,00
747,60	5940,00
748,05	6436,00
748,49	6187,00
748,94	6174,00
749,39	6411,00
749,83	7287,00
750,28	6386,00
750,73	6195,00
751,17	6019,00
751,62	6087,00
752,06	6151,00
752,51	6199,00
752,95	6938,00
753,40	6154,00
753,85	6224,00
754,29	5875,00
754,74	6187,00
755,18	5984,00
755,63	6188,00
756,07	6275,00
756,52	6668,00
756,97	6146,00
757,41	6650,00
757,86	6254,00
758,30	6174,00
758,75	6155,00
759,19	6169,00
759,64	5941,00
760,08	6117,00
760,53	6355,00
760,98	6171,00
761,42	6446,00
761,87	6659,00
762,31	6062,00
762,76	5857,00
763,20	6137,00
763,65	6483,00
764,09	6115,00
764,54	5898,00
764,98	6052,00
765,43	6317,00
765,87	5913,00
766,32	5917,00
766,76	6054,00
767,21	6242,00
767,65	6173,00
768,10	6360,00
768,54	6460,00
768,99	6224,00
769,43	6778,00
769,88	5924,00
770,32	6211,00
770,77	6032,00
771,21	5897,00
771,65	6384,00
772,10	6285,00
772,54	6357,00
772,99	5754,00
773,43	6098,00
773,88	6088,00
774,32	5665,00
774,77	6259,00
775,21	5945,00
775,65	6279,00
776,10	6194,00
776,54	5932,00
776,99	6141,00
777,43	6161,00
777,88	6230,00
778,32	6391,00
778,76	6145,00
779,21	6287,00
779,65	7258,00
780,10	6751,00
780,54	6203,00
780,99	6525,00
781,43	6329,00
781,87	5924,00
782,32	6196,00
782,76	5873,00
783,20	6134,00
783,65	6340,00
784,09	6468,00
784,54	6180,00
784,98	6018,00
785,42	6155,00
785,87	5967,00
786,31	6441,00
786,75	6499,00
787,20	6602,00
787,64	5873,00
788,09	5965,00
788,53	6220,00
788,97	5954,00
789,42	6078,00
789,86	6107,00
790,30	6264,00
790,75	5912,00
791,19	5959,00
791,63	6522,00
792,08	6039,00
792,52	6172,00
792,96	6076,00
793,41	7726,00
793,85	6501,00
794,29	6213,00
794,74	6215,00
795,18	6182,00
795,62	5870,00
796,06	6363,00
796,51	6161,00
796,95	6233,00
797,39	6045,00
797,84	5872,00
798,28	6229,00
798,72	6481,00
799,16	6177,00
799,61	5964,00
800,05	6637,00
800,49	6301,00
800,94	5894,00
801,38	6287,00
801,82	6220,00
802,26	5958,00
802,71	6531,00
803,15	6751,00
803,59	6388,00
804,03	6185,00
804,48	6149,00
804,92	6013,00
805,36	6800,00
805,80	6939,00
806,25	6728,00
806,69	6408,00
807,13	6914,00
807,57	6084,00
808,01	6190,00
808,46	5859,00
808,90	6308,00
809,34	6188,00
809,78	6017,00
810,23	5812,00
810,67	6361,00
811,11	6625,00
811,55	7414,00
811,99	5954,00
812,44	5929,00
812,88	6370,00
813,32	6822,00
813,76	6449,00
814,20	6203,00
814,64	6458,00
815,09	6298,00
815,53	6196,00
815,97	6050,00
816,41	5913,00
816,85	6040,00
817,29	6417,00
817,74	6208,00
818,18	6474,00
818,62	5925,00
819,06	6354,00
819,50	6536,00
819,94	6119,00
820,39	6319,00
820,83	6069,00
821,27	6190,00
821,71	5954,00
822,15	6610,00
822,59	5874,00
823,03	6198,00
823,47	6187,00
823,92	5835,00
824,36	6260,00
824,80	6111,00
825,24	6275,00
825,68	6310,00
826,12	5920,00
826,56	6123,00
827,00	5652,00
827,44	6075,00
827,88	6398,00
828,33	6506,00
828,77	5992,00
829,21	6476,00
829,65	6267,00
830,09	6090,00
830,53	6698,00
830,97	6046,00
831,41	6964,00
831,85	6460,00
832,29	6339,00
832,73	5846,00
833,17	6136,00
833,61	6061,00
834,05	6648,00
834,49	6300,00
834,93	6118,00
835,37	6020,00
835,82	6483,00
836,26	6112,00
836,70	6244,00
837,14	6113,00
837,58	6531,00
838,02	5919,00
838,46	5916,00
838,90	6216,00
839,34	6094,00
839,78	6763,00
840,22	7042,00
840,66	6251,00
841,10	6666,00
841,54	5699,00
841,98	5991,00
842,42	5780,00
842,86	6107,00
843,30	6414,00
843,74	6176,00
844,18	6394,00
844,62	6187,00
845,06	5865,00
845,50	6330,00
845,94	6078,00
846,37	6407,00
846,81	6001,00
847,25	5971,00
847,69	6150,00
848,13	5922,00
848,57	6043,00
849,01	6004,00
849,45	6348,00
849,89	6527,00
850,33	6425,00
850,77	6088,00
851,21	6339,00
851,65	5936,00
852,09	6245,00
852,53	6486,00
852,97	5967,00
853,40	5940,00
853,84	6347,00
854,28	5821,00
854,72	6485,00
855,16	5749,00
855,60	5997,00
856,04	6501,00
856,48	6693,00
856,92	6194,00
857,36	6296,00
857,79	6222,00
858,23	5849,00
858,67	6595,00
859,11	5654,00
859,55	5996,00
859,99	6026,00
860,43	6128,00
860,87	6221,00
861,30	6361,00
861,74	5968,00
862,18	6132,00
862,62	6293,00
863,06	5936,00
863,50	5983,00
863,94	6406,00
864,37	5951,00
864,81	6143,00
865,25	6127,00
865,69	5813,00
866,13	6117,00
866,57	5756,00
867,00	6401,00
867,44	5864,00
867,88	6313,00
868,32	6102,00
868,76	6033,00
869,19	6298,00
869,63	6142,00
870,07	6688,00
870,51	7156,00
870,95	5860,00
871,38	6091,00
871,82	6188,00
872,26	5925,00
872,70	6274,00
873,14	6398,00
873,57	6104,00
874,01	6509,00
874,45	6416,00
874,89	6026,00
875,32	5940,00
875,76	6527,00
876,20	5663,00
876,64	6298,00
877,07	6135,00
877,51	6215,00
877,95	6210,00
878,39	6160,00
878,82	6214,00
879,26	6133,00
879,70	6710,00
880,14	5945,00
880,57	5866,00
881,01	6022,00
881,45	6186,00
881,89	6461,00
882,32	6113,00
882,76	6161,00
883,20	6134,00
883,63	6047,00
884,07	5906,00
884,51	6313,00
884,94	6128,00
885,38	6270,00
885,82	6403,00
886,26	6118,00
886,69	5977,00
887,13	6731,00
887,57	5939,00
888,00	5891,00
888,44	6197,00
888,88	5937,00
889,31	7301,00
889,75	5779,00
890,19	6389,00
890,62	6017,00
891,06	6320,00
891,50	6307,00
891,93	5807,00
892,37	6049,00
892,81	6089,00
893,24	5866,00
893,68	6014,00
894,11	6235,00
894,55	6044,00
894,99	6314,00
895,42	6072,00
895,86	5940,00
896,30	6258,00
896,73	6325,00
897,17	5894,00
897,60	5857,00
898,04	5899,00
898,48	6210,00
898,91	6557,00
899,35	5921,00
899,78	5912,00
900,22	5969,00
900,66	6419,00
901,09	6308,00
901,53	6040,00
901,96	6793,00
902,40	6843,00
902,84	5951,00
903,27	5997,00
903,71	6846,00
904,14	5951,00
904,58	6303,00
905,01	6032,00
905,45	5984,00
905,88	5797,00
906,32	6580,00
906,76	6158,00
907,19	6418,00
907,63	6151,00
908,06	6095,00
908,50	6359,00
908,93	6604,00
909,37	6039,00
909,80	5805,00
910,24	6238,00
910,67	6203,00
911,11	6035,00
911,54	5918,00
911,98	6045,00
912,41	6150,00
912,85	6048,00
913,28	6356,00
913,72	6311,00
914,15	6042,00
914,59	5850,00
915,02	5811,00
915,46	6003,00
915,89	5948,00
916,33	6403,00
916,76	5988,00
917,20	6411,00
917,63	5996,00
918,07	6413,00
918,50	5901,00
918,94	6107,00
919,37	6045,00
919,81	6260,00
920,24	6305,00
920,67	6110,00
921,11	6725,00
921,54	6240,00
921,98	5987,00
922,41	5790,00
922,85	5784,00
923,28	6227,00
923,72	6622,00
924,15	6353,00
924,58	5703,00
925,02	6272,00
925,45	5903,00
925,89	6388,00
926,32	6944,00
926,75	5960,00
927,19	6365,00
927,62	5791,00
928,06	6908,00
928,49	6083,00
928,92	5832,00
929,36	6416,00
929,79	6012,00
930,23	6196,00
930,66	6447,00
931,09	5924,00
931,53	6197,00
931,96	5690,00
932,39	6717,00
932,83	6487,00
933,26	7150,00
933,70	6062,00
934,13	6423,00
934,56	6419,00
935,00	6328,00
935,43	6235,00
935,86	5799,00
936,30	6056,00
936,73	5882,00
937,16	6262,00
937,60	5886,00
938,03	6264,00
938,46	5975,00
938,90	6017,00
939,33	6280,00
939,76	5871,00
940,19	6080,00
940,63	6386,00
941,06	6865,00
941,49	5973,00
941,93	6476,00
942,36	5877,00
942,79	5981,00
943,23	6330,00
943,66	5748,00
944,09	5764,00
944,52	6316,00
944,96	6277,00
945,39	6341,00
945,82	6178,00
946,26	6204,00
946,69	6194,00
947,12	6470,00
947,55	6102,00
947,99	6054,00
948,42	6266,00
948,85	5766,00
949,28	5797,00
949,72	5840,00
950,15	7066,00
950,58	6465,00
951,01	6036,00
951,45	5907,00
951,88	6250,00
952,31	5817,00
952,74	6385,00
953,17	5955,00
953,61	6775,00
954,04	5748,00
954,47	5930,00
954,90	5917,00
955,33	5914,00
955,77	6029,00
956,20	6215,00
956,63	5875,00
957,06	6289,00
957,49	7165,00
957,93	5737,00
958,36	6247,00
958,79	6123,00
959,22	5977,00
959,65	5927,00
960,08	5877,00
960,52	5558,00
960,95	6022,00
961,38	6255,00
961,81	6203,00
962,24	6348,00
962,67	6352,00
963,11	5917,00
963,54	6193,00
963,97	5988,00
964,40	6097,00
964,83	6035,00
965,26	5848,00
965,69	6321,00
966,13	5927,00
966,56	6069,00
966,99	6276,00
967,42	5905,00
967,85	5921,00
968,28	6464,00
968,71	7645,00
969,14	6293,00
969,57	6082,00
970,01	6237,00
970,44	5866,00
970,87	5942,00
971,30	6236,00
971,73	5944,00
972,16	6102,00
972,59	5804,00
973,02	5877,00
973,45	6026,00
973,88	6217,00
974,31	5989,00
974,74	6327,00
975,17	6168,00
975,61	5935,00
976,04	5887,00
976,47	5806,00
976,90	6206,00
977,33	5866,00
977,76	6339,00
978,19	6073,00
978,62	5976,00
979,05	6030,00
979,48	6007,00
979,91	6321,00
980,34	6250,00
980,77	5916,00
981,20	6198,00
981,63	6394,00
982,06	6059,00
982,49	6064,00
982,92	5969,00
983,35	5988,00
983,78	5849,00
984,21	6378,00
984,64	6350,00
985,07	5792,00
985,50	5629,00
985,93	6003,00
986,36	6314,00
986,79	5975,00
987,22	5863,00
987,65	6310,00
988,08	6072,00
988,51	6141,00
988,94	6035,00
989,37	6167,00
989,80	6088,00
990,23	6056,00
990,66	6223,00
991,09	6068,00
991,51	6199,00
991,94	6776,00
992,37	5985,00
992,80	5903,00
993,23	6013,00
993,66	5869,00
994,09	5956,00
994,52	6263,00
994,95	6319,00
995,38	6172,00
995,81	6147,00
996,24	5765,00
996,67	5821,00
997,09	5604,00
997,52	6479,00
997,95	6379,00
998,38	5902,00
998,81	6110,00
999,24	5881,00
999,67	6455,00
1000,10	6063,00
1000,53	6057,00
1000,95	6596,00
1001,38	5787,00
1001,81	6143,00
1002,24	6290,00
1002,67	6006,00
1003,10	6170,00
1003,53	6014,00
1003,95	6278,00
1004,38	5835,00
1004,81	6204,00
1005,24	6127,00
1005,67	6545,00
1006,10	5970,00
1006,52	5819,00
1006,95	6227,00
1007,38	6044,00
1007,81	5893,00
1008,24	5731,00
1008,67	5991,00
1009,09	5912,00
1009,52	7358,00
1009,95	6354,00
1010,38	6352,00
1010,81	6178,00
1011,23	6305,00
1011,66	6446,00
1012,09	5997,00
1012,52	6303,00
1012,95	6055,00
1013,37	6231,00
1013,80	6235,00
1014,23	5809,00
1014,66	6516,00
1015,08	5672,00
1015,51	6370,00
1015,94	5897,00
1016,37	6131,00
1016,80	5855,00
1017,22	6227,00
1017,65	6049,00
1018,08	14010,00
1018,51	5905,00
1018,93	5636,00
1019,36	7078,00
1019,79	6480,00
1020,21	6285,00
1020,64	6014,00
1021,07	6022,00
1021,50	6190,00
1021,92	6185,00
1022,35	6333,00
1022,78	6044,00
1023,21	7339,00
1023,63	6507,00
1024,06	6431,00
1024,49	6309,00
1024,91	6189,00
1025,34	6157,00
1025,77	6309,00
1026,19	5886,00
1026,62	5835,00
1027,05	6947,00
1027,47	6333,00
1027,90	6230,00
1028,33	6145,00
1028,75	6181,00
1029,18	5888,00
1029,61	6912,00
1030,03	6140,00
1030,46	6133,00
1030,89	6195,00
1031,31	6569,00
1031,74	5738,00
1032,17	6152,00
1032,59	6295,00
1033,02	5927,00
1033,45	6417,00
1033,87	5884,00
1034,30	5868,00
1034,73	6259,00
1035,15	6347,00
1035,58	5921,00
1036,00	6552,00
1036,43	5922,00
1036,86	5941,00
1037,28	6164,00
1037,71	5708,00
1038,13	6350,00
1038,56	6387,00
1038,99	6354,00
1039,41	6417,00
1039,84	6644,00
1040,26	6027,00
1040,69	6113,00
1041,11	6125,00
1041,54	5963,00
1041,97	6562,00
1042,39	6545,00
1042,82	6241,00
1043,24	6364,00
1043,67	6070,00
1044,09	6456,00
1044,52	5797,00
1044,95	6079,00
1045,37	5968,00
1045,80	5783,00
1046,22	6123,00
1046,65	6340,00
1047,07	5882,00
1047,50	6229,00
1047,92	6402,00
1048,35	5808,00
1048,77	6428,00
1049,20	6330,00
1049,62	6315,00
1050,05	6079,00
1050,47	6078,00
1050,90	6205,00
1051,32	6374,00
1051,75	6550,00
1052,17	6484,00
1052,60	6118,00
1053,02	6210,00
1053,45	5554,00
1053,87	6093,00
1054,30	5583,00
1054,72	6084,00
1055,15	5885,00
1055,57	6219,00
1056,00	6274,00
1056,42	6783,00
1056,85	6440,00
1057,27	6487,00
1057,70	6079,00
1058,12	7533,00
1058,54	5860,00
1058,97	6293,00
1059,39	6316,00
1059,82	6051,00
1060,24	6072,00
1060,67	5917,00
1061,09	6346,00
1061,51	6180,00
1061,94	5941,00
1062,36	6386,00
1062,79	6526,00
1063,21	6118,00
1063,64	6120,00
1064,06	5923,00
1064,48	6358,00
1064,91	6464,00
1065,33	6038,00
1065,76	5823,00
1066,18	5639,00
1066,60	6417,00
1067,03	6136,00
1067,45	6130,00
1067,87	6227,00
1068,30	5928,00
1068,72	6686,00
1069,15	6075,00
1069,57	5969,00
1069,99	5749,00
1070,42	6411,00
1070,84	6500,00
1071,26	6375,00
1071,69	5984,00
1072,11	6303,00
1072,53	5926,00
1072,96	5845,00
1073,38	5772,00
1073,80	6246,00
1074,23	5989,00
1074,65	5736,00
1075,07	5962,00
1075,50	5962,00
1075,92	6161,00
1076,34	5903,00
1076,77	5881,00
1077,19	6106,00
1077,61	6426,00
1078,04	5990,00
1078,46	6345,00
1078,88	6636,00
1079,30	5610,00
1079,73	6069,00
1080,15	6064,00
1080,57	6112,00
1081,00	6253,00
1081,42	6118,00
1081,84	5972,00
1082,26	6250,00
1082,69	6098,00
1083,11	6090,00
1083,53	6069,00
1083,95	6129,00
1084,38	6421,00
1084,80	6146,00
1085,22	5994,00
1085,64	6479,00
1086,07	5847,00
1086,49	5989,00
1086,91	6241,00
1087,33	5686,00
1087,76	6265,00
1088,18	14677,00
1088,60	6156,00
1089,02	5920,00
1089,45	5934,00
1089,87	6024,00
1090,29	6420,00
1090,71	6014,00
1091,13	5777,00
1091,56	5974,00
1091,98	5973,00
1092,40	5925,00
1092,82	6037,00
1093,24	6037,00
1093,66	6145,00
1094,09	5959,00
1094,51	6100,00
1094,93	5998,00
1095,35	6083,00
1095,77	5922,00
1096,19	6079,00
1096,62	6181,00
1097,04	5776,00
1097,46	6077,00
1097,88	5907,00
1098,30	6323,00
1098,72	6152,00
1099,15	6239,00
1099,57	6083,00
1099,99	5947,00
1100,41	5899,00
1100,83	5996,00
1101,25	5949,00
1101,67	6110,00
1102,09	5738,00
1102,52	5863,00
1102,94	5985,00
1103,36	6031,00
1103,78	6122,00
1104,20	5899,00
1104,62	6595,00
1105,04	5420,00
1105,46	6153,00
1105,88	6015,00
1106,30	5827,00
1106,73	6031,00
1107,15	5499,00
1107,57	5616,00
1107,99	6227,00
1108,41	5632,00
1108,83	6209,00
1109,25	6084,00
1109,67	6051,00
1110,09	5531,00
1110,51	5859,00
1110,93	5545,00
1111,35	5910,00
1111,77	5612,00
1112,19	5638,00
1112,61	5510,00
1113,03	5762,00
1113,45	5694,00
1113,87	5656,00
1114,29	5916,00
1114,71	6070,00
1115,13	5695,00
1115,55	5783,00
1115,98	5682,00
1116,40	6000,00
1116,82	5866,00
1117,24	5887,00
1117,66	5775,00
1118,08	2106,00
1118,50	2186,00
1118,91	2182,00
1119,33	2180,00
>>>>>End Processed Spectral Data<<<<<
