SpectraSuite Data File
++++++++++++++++++++++++++++++++++++
Date: Wed May 16 14:34:01 EEST 2012
User: OO Maya
Dark Spectrum Present: No
Reference Spectrum Present: No
Number of Sampled Component Spectra: 1
Spectrometers: MAYP11278
Integration Time (usec): 3000000 (MAYP11278)
Spectra Averaged: 4 (MAYP11278)
Boxcar Smoothing: 0 (MAYP11278)
Correct for Electrical Dark: No (MAYP11278)
Strobe/Lamp Enabled: No (MAYP11278)
Correct for Detector Non-linearity: No (MAYP11278)
Correct for Stray Light: No (MAYP11278)
Number of Pixels in Processed Spectrum: 2068
>>>>>Begin Processed Spectral Data<<<<<
188,05	2297,75
188,53	2212,25
189,01	2184,75
189,49	2183,25
189,96	6711,50
190,44	7022,75
190,92	6891,75
191,40	6963,25
191,88	7279,75
192,36	6957,50
192,83	6798,75
193,31	6673,75
193,79	6976,25
194,27	6857,25
194,75	7112,50
195,23	6858,00
195,70	7239,25
196,18	6891,50
196,66	6949,00
197,14	7833,25
197,62	6992,00
198,09	6774,75
198,57	6860,00
199,05	6775,00
199,53	7102,00
200,01	7273,50
200,48	6866,25
200,96	6935,75
201,44	7249,50
201,92	7209,00
202,39	7204,50
202,87	6765,25
203,35	7135,50
203,83	6846,25
204,31	7267,00
204,78	7447,50
205,26	6882,00
205,74	6885,75
206,22	7483,75
206,69	6943,75
207,17	7129,75
207,65	7886,00
208,13	7116,50
208,60	7244,00
209,08	6993,25
209,56	7327,25
210,04	7235,00
210,51	7024,50
210,99	7027,25
211,47	7197,00
211,94	7108,50
212,42	6887,50
212,90	7611,75
213,38	7260,25
213,85	6975,50
214,33	7648,25
214,81	7241,25
215,29	7521,75
215,76	7210,50
216,24	7305,25
216,72	7341,00
217,19	7288,50
217,67	7020,25
218,15	7013,75
218,62	7509,25
219,10	6722,50
219,58	6889,00
220,05	6996,25
220,53	7086,50
221,01	7511,50
221,49	7005,00
221,96	7378,00
222,44	6914,50
222,92	7399,00
223,39	6981,50
223,87	7396,25
224,35	7131,75
224,82	7068,50
225,30	6857,50
225,78	7112,00
226,25	6921,25
226,73	7167,75
227,21	7402,25
227,68	7067,25
228,16	7248,00
228,63	7353,00
229,11	7333,25
229,59	7079,50
230,06	7064,75
230,54	7020,75
231,02	7344,25
231,49	7432,75
231,97	7167,50
232,45	7219,25
232,92	6866,25
233,40	7172,00
233,87	7175,25
234,35	8200,00
234,83	7242,50
235,30	7006,50
235,78	6968,00
236,25	6823,00
236,73	7421,75
237,21	7798,25
237,68	7011,00
238,16	7260,00
238,63	7215,00
239,11	7171,75
239,59	7127,75
240,06	6825,75
240,54	7309,75
241,01	7506,25
241,49	7202,00
241,96	7084,25
242,44	7411,00
242,92	7523,00
243,39	6881,00
243,87	6966,75
244,34	7430,50
244,82	7621,75
245,29	7151,00
245,77	7568,50
246,24	7470,00
246,72	6992,00
247,20	7198,25
247,67	7188,25
248,15	7298,75
248,62	7313,50
249,10	6719,00
249,57	7189,00
250,05	7406,75
250,52	7269,25
251,00	7576,50
251,47	7194,25
251,95	7815,00
252,42	7566,50
252,90	7049,25
253,37	7545,50
253,85	7235,25
254,32	7082,75
254,80	7238,25
255,27	7289,50
255,75	7438,75
256,22	7037,25
256,70	7320,25
257,17	7338,00
257,65	7478,25
258,12	8141,25
258,60	7246,50
259,07	7069,50
259,55	7257,75
260,02	7394,25
260,50	7709,50
260,97	7101,50
261,45	7078,75
261,92	7557,50
262,40	6943,75
262,87	7249,00
263,35	7138,00
263,82	6855,75
264,30	7423,75
264,77	7545,00
265,25	7070,25
265,72	7293,75
266,19	7286,75
266,67	7508,75
267,14	7106,50
267,62	7180,25
268,09	7320,00
268,57	7328,25
269,04	6786,25
269,51	6973,75
269,99	7041,25
270,46	7358,25
270,94	7528,25
271,41	7124,25
271,89	7216,25
272,36	6860,00
272,83	6887,25
273,31	6640,25
273,78	7223,00
274,26	8308,00
274,73	7453,00
275,20	7452,75
275,68	7041,00
276,15	7172,50
276,63	7331,50
277,10	7441,75
277,57	6903,50
278,05	7129,00
278,52	6895,75
279,00	8465,00
279,47	7116,25
279,94	7032,50
280,42	8430,25
280,89	7471,00
281,36	8239,75
281,84	7060,25
282,31	7566,50
282,78	7191,75
283,26	7151,50
283,73	7409,25
284,21	7001,50
284,68	6953,25
285,15	7425,50
285,63	7146,25
286,10	7315,00
286,57	7368,50
287,05	6879,75
287,52	7341,75
287,99	7687,00
288,47	7116,75
288,94	7441,00
289,41	6736,00
289,89	7636,25
290,36	6979,50
290,83	7281,50
291,30	7067,50
291,78	7394,00
292,25	7889,00
292,72	7033,75
293,20	7538,50
293,67	7080,75
294,14	7430,25
294,62	7315,75
295,09	6976,25
295,56	7219,50
296,03	7309,50
296,51	7830,25
296,98	7749,50
297,45	7458,75
297,93	7364,00
298,40	7368,75
298,87	7110,00
299,34	7684,00
299,82	7122,25
300,29	7359,00
300,76	7083,75
301,23	7514,75
301,71	7490,00
302,18	7499,50
302,65	6984,50
303,12	7459,75
303,60	7547,50
304,07	6999,00
304,54	7108,00
305,01	7012,50
305,49	7297,00
305,96	7355,00
306,43	7311,75
306,90	7445,50
307,38	7101,75
307,85	7143,00
308,32	7289,50
308,79	7111,25
309,27	7506,50
309,74	7559,50
310,21	7329,50
310,68	7302,50
311,15	7408,75
311,63	7044,50
312,10	7535,50
312,57	7235,00
313,04	7805,75
313,51	7061,50
313,99	7150,50
314,46	7324,25
314,93	7116,50
315,40	7057,25
315,87	7589,00
316,34	7476,75
316,82	7361,50
317,29	7455,75
317,76	7331,50
318,23	8165,00
318,70	7223,25
319,17	7289,00
319,65	6911,25
320,12	7377,00
320,59	7791,00
321,06	7539,75
321,53	7148,75
322,00	6822,25
322,48	6984,25
322,95	7775,25
323,42	7167,00
323,89	8023,75
324,36	6893,50
324,83	7346,25
325,30	7158,50
325,78	7112,50
326,25	7146,50
326,72	7160,00
327,19	7405,00
327,66	7383,50
328,13	7404,75
328,60	7337,50
329,07	7188,75
329,54	7179,75
330,02	7125,00
330,49	7040,75
330,96	7482,75
331,43	7404,50
331,90	7803,75
332,37	7062,25
332,84	7897,25
333,31	7511,00
333,78	7413,50
334,25	7699,25
334,72	7310,00
335,20	7387,25
335,67	8442,00
336,14	6970,50
336,61	7212,75
337,08	7154,00
337,55	7335,25
338,02	7138,75
338,49	7163,75
338,96	7744,75
339,43	7558,00
339,90	6967,00
340,37	7038,75
340,84	6962,00
341,31	7404,00
341,78	7579,50
342,25	7093,75
342,72	7329,25
343,19	7514,50
343,67	7302,50
344,14	7137,75
344,61	7265,25
345,08	7068,25
345,55	7309,00
346,02	7443,25
346,49	7110,50
346,96	7031,00
347,43	7759,75
347,90	7098,25
348,37	7630,25
348,84	7290,25
349,31	6888,00
349,78	7344,25
350,25	7493,50
350,72	7299,25
351,19	7007,25
351,66	7413,75
352,13	7852,25
352,60	7352,25
353,07	7230,25
353,54	7372,25
354,01	7396,25
354,48	7427,50
354,94	7459,25
355,41	7344,50
355,88	7758,75
356,35	7117,75
356,82	7766,25
357,29	7077,00
357,76	7998,75
358,23	7484,00
358,70	6892,25
359,17	7032,75
359,64	7098,50
360,11	7092,25
360,58	7564,75
361,05	7699,50
361,52	7200,50
361,99	7254,25
362,46	7306,75
362,93	7229,75
363,39	7274,50
363,86	8049,00
364,33	7429,75
364,80	7069,00
365,27	7467,00
365,74	7089,75
366,21	6943,75
366,68	7327,25
367,15	7276,25
367,62	7296,00
368,09	6838,00
368,55	6949,50
369,02	7559,00
369,49	6950,00
369,96	7597,00
370,43	7362,25
370,90	7151,75
371,37	7116,75
371,84	7392,50
372,31	7035,75
372,77	6855,50
373,24	7135,25
373,71	7348,00
374,18	6917,25
374,65	7021,25
375,12	7367,25
375,59	6842,00
376,05	7611,50
376,52	7102,00
376,99	6965,75
377,46	6940,75
377,93	7304,25
378,40	7354,25
378,86	7229,75
379,33	7260,25
379,80	7198,25
380,27	7508,50
380,74	7728,25
381,21	7278,50
381,67	7745,50
382,14	7696,75
382,61	6885,00
383,08	7298,25
383,55	7201,00
384,02	7501,50
384,48	7264,00
384,95	8969,50
385,42	7305,75
385,89	7069,25
386,36	7193,50
386,82	7770,75
387,29	6983,00
387,76	6923,50
388,23	7587,00
388,69	7345,75
389,16	7657,25
389,63	7082,00
390,10	7450,25
390,57	7329,50
391,03	7378,50
391,50	7424,50
391,97	7287,00
392,44	7390,00
392,90	7159,25
393,37	7185,25
393,84	8128,50
394,31	7261,25
394,77	7609,00
395,24	7042,75
395,71	7513,50
396,18	8820,00
396,64	6930,50
397,11	7404,75
397,58	7533,50
398,05	7001,75
398,51	7235,25
398,98	7085,50
399,45	7019,50
399,92	7638,50
400,38	6983,25
400,85	7218,75
401,32	7141,50
401,78	7446,00
402,25	7300,00
402,72	7332,00
403,18	6991,75
403,65	7739,00
404,12	7217,50
404,59	7631,75
405,05	7836,75
405,52	7584,25
405,99	7007,75
406,45	7574,50
406,92	7425,25
407,39	7862,25
407,85	7298,75
408,32	7335,00
408,79	7462,75
409,25	6940,75
409,72	7669,75
410,19	6999,75
410,65	7620,50
411,12	7032,75
411,59	7633,50
412,05	6995,50
412,52	6822,25
412,99	7385,50
413,45	7215,50
413,92	7385,00
414,39	7444,25
414,85	7865,25
415,32	7226,50
415,78	7799,00
416,25	7339,75
416,72	7285,75
417,18	7896,75
417,65	7403,75
418,12	7263,75
418,58	7333,25
419,05	7298,00
419,51	7517,75
419,98	7073,25
420,45	7538,25
420,91	6998,50
421,38	7214,50
421,84	7093,00
422,31	7432,25
422,78	7125,00
423,24	7226,25
423,71	7372,75
424,17	7515,75
424,64	7262,50
425,11	7532,25
425,57	7221,75
426,04	7696,50
426,50	7191,75
426,97	7674,00
427,43	7503,75
427,90	7543,25
428,37	6951,50
428,83	7613,00
429,30	7413,25
429,76	7261,25
430,23	7385,50
430,69	8304,25
431,16	6918,50
431,62	7190,00
432,09	7748,50
432,55	7611,50
433,02	7212,75
433,48	7093,50
433,95	7273,00
434,42	7173,00
434,88	7502,00
435,35	6982,75
435,81	7517,25
436,28	7227,00
436,74	6892,00
437,21	7575,75
437,67	7351,00
438,14	7311,75
438,60	7099,50
439,07	7215,75
439,53	8587,75
440,00	7388,50
440,46	7555,75
440,93	7638,50
441,39	7019,00
441,86	7207,00
442,32	8139,00
442,79	7013,75
443,25	7316,25
443,72	7328,25
444,18	6906,00
444,64	7805,75
445,11	7430,00
445,57	7344,50
446,04	7287,50
446,50	7376,50
446,97	7280,00
447,43	7295,75
447,90	7092,50
448,36	7086,25
448,83	7423,00
449,29	7419,75
449,75	7219,25
450,22	7024,50
450,68	7042,25
451,15	7092,75
451,61	7364,25
452,08	7517,50
452,54	6992,50
453,00	7632,00
453,47	7238,75
453,93	7170,50
454,40	7267,25
454,86	7457,25
455,32	7127,00
455,79	7320,00
456,25	7568,50
456,72	7056,75
457,18	7638,75
457,64	7207,75
458,11	7223,75
458,57	6978,50
459,04	7315,50
459,50	7220,00
459,96	7305,00
460,43	7165,50
460,89	6985,25
461,36	7709,25
461,82	7531,00
462,28	7034,75
462,75	6900,75
463,21	7629,25
463,67	7164,75
464,14	7323,50
464,60	7329,00
465,06	6961,25
465,53	7164,50
465,99	7531,00
466,45	7266,50
466,92	7414,50
467,38	7459,75
467,84	7210,25
468,31	7329,50
468,77	7403,75
469,23	7204,25
469,70	7012,50
470,16	7296,25
470,62	7358,00
471,09	7072,50
471,55	7179,75
472,01	7034,00
472,48	7119,50
472,94	7208,50
473,40	7678,75
473,87	7167,00
474,33	6999,00
474,79	7198,00
475,25	6938,00
475,72	7362,00
476,18	7190,00
476,64	7361,00
477,11	7163,25
477,57	7241,00
478,03	7676,75
478,49	7306,00
478,96	7549,00
479,42	7042,50
479,88	7708,75
480,35	7437,75
480,81	7220,75
481,27	7033,75
481,73	7174,00
482,20	7274,25
482,66	6916,75
483,12	7148,75
483,58	6829,75
484,05	7131,00
484,51	7661,00
484,97	7302,00
485,43	7217,75
485,89	6758,00
486,36	7148,00
486,82	6781,00
487,28	7353,00
487,74	6896,75
488,21	6831,25
488,67	6963,75
489,13	7246,75
489,59	7186,00
490,05	7482,00
490,52	6859,00
490,98	7232,75
491,44	6845,00
491,90	6965,75
492,36	6773,00
492,83	7517,50
493,29	7257,50
493,75	7232,25
494,21	6941,00
494,67	7075,00
495,14	7024,50
495,60	6913,00
496,06	7361,50
496,52	7072,75
496,98	7110,75
497,44	7739,00
497,91	7535,25
498,37	7021,50
498,83	7212,75
499,29	7057,25
499,75	7953,25
500,21	7194,00
500,67	7044,75
501,14	7132,75
501,60	7069,00
502,06	7351,75
502,52	7103,25
502,98	7183,75
503,44	7145,50
503,90	7319,25
504,37	6998,00
504,83	7312,25
505,29	7268,50
505,75	6956,75
506,21	7121,25
506,67	7408,75
507,13	7115,50
507,59	7407,00
508,05	7299,00
508,51	7021,25
508,98	7020,25
509,44	6764,25
509,90	7043,50
510,36	7115,00
510,82	6971,00
511,28	7562,00
511,74	7575,75
512,20	6958,50
512,66	6748,75
513,12	6954,25
513,58	7282,00
514,04	6668,25
514,51	7430,00
514,97	7754,25
515,43	6750,75
515,89	7196,50
516,35	7523,25
516,81	7402,00
517,27	7966,75
517,73	7277,25
518,19	7229,75
518,65	8333,00
519,11	7108,50
519,57	6996,50
520,03	6856,25
520,49	6943,25
520,95	7268,00
521,41	7311,00
521,87	7386,25
522,33	7173,75
522,79	6836,25
523,25	7760,25
523,71	7484,25
524,17	7110,25
524,63	7731,00
525,09	7359,25
525,55	7362,00
526,01	7550,75
526,47	7275,75
526,93	7189,25
527,39	7073,25
527,85	7086,00
528,31	7385,50
528,77	7334,00
529,23	7087,75
529,69	6892,75
530,15	7325,50
530,61	7374,00
531,07	6793,50
531,53	7531,25
531,99	7242,50
532,45	7150,75
532,91	7166,00
533,37	7324,00
533,83	7061,25
534,29	6864,50
534,75	7133,50
535,21	7034,50
535,67	7244,25
536,12	6991,50
536,58	7311,25
537,04	6862,00
537,50	7416,00
537,96	7122,25
538,42	7167,75
538,88	7679,75
539,34	7377,75
539,80	8952,25
540,26	6784,75
540,72	7709,00
541,18	7245,50
541,63	6833,25
542,09	7401,50
542,55	7288,25
543,01	7043,75
543,47	8105,25
543,93	6900,75
544,39	7807,25
544,85	7439,25
545,31	7124,50
545,76	7056,00
546,22	7525,75
546,68	7210,00
547,14	7329,00
547,60	7414,25
548,06	7206,00
548,52	7091,25
548,98	7063,25
549,43	6940,00
549,89	7898,00
550,35	7068,00
550,81	6830,75
551,27	7291,25
551,73	7178,75
552,19	7816,00
552,64	7247,50
553,10	6920,00
553,56	7311,00
554,02	7093,75
554,48	6837,75
554,93	7258,50
555,39	7176,50
555,85	7761,75
556,31	7202,75
556,77	7593,75
557,23	6710,25
557,68	7264,50
558,14	7874,25
558,60	7030,75
559,06	7118,75
559,52	6936,25
559,97	6971,00
560,43	6924,00
560,89	7182,00
561,35	7100,25
561,81	7214,75
562,26	7041,00
562,72	6963,50
563,18	7197,25
563,64	7575,75
564,09	6891,75
564,55	7199,75
565,01	7102,00
565,47	7116,00
565,92	7429,50
566,38	7521,50
566,84	7068,75
567,30	7006,75
567,75	7205,00
568,21	7506,25
568,67	7029,75
569,13	7135,50
569,58	7401,00
570,04	7288,50
570,50	7129,75
570,96	7400,50
571,41	7380,50
571,87	7173,50
572,33	7182,75
572,78	7268,25
573,24	6997,75
573,70	6980,50
574,16	7204,75
574,61	7632,25
575,07	7443,75
575,53	6865,25
575,98	7259,50
576,44	6662,50
576,90	7566,25
577,36	7067,75
577,81	7053,50
578,27	6836,75
578,73	7613,50
579,18	7116,25
579,64	6995,00
580,10	7273,00
580,55	7235,50
581,01	7192,50
581,47	7160,25
581,92	7202,25
582,38	7129,00
582,84	6844,25
583,29	7169,25
583,75	7259,50
584,21	7061,25
584,66	7363,75
585,12	7020,00
585,57	7983,50
586,03	7100,25
586,49	7108,75
586,94	7100,50
587,40	7118,00
587,86	7561,25
588,31	6844,50
588,77	7378,50
589,22	7115,25
589,68	6913,25
590,14	7283,75
590,59	7387,25
591,05	7017,00
591,51	6790,50
591,96	7618,25
592,42	7035,75
592,87	7290,50
593,33	7187,50
593,78	7432,25
594,24	7170,00
594,70	7117,25
595,15	7638,00
595,61	7039,50
596,06	6950,50
596,52	7652,50
596,98	7397,75
597,43	7613,75
597,89	7222,25
598,34	6791,00
598,80	7214,75
599,25	7589,00
599,71	6984,25
600,16	7310,75
600,62	7559,00
601,08	7273,50
601,53	7466,75
601,99	6774,50
602,44	8191,50
602,90	7049,50
603,35	7175,50
603,81	6819,00
604,26	6705,50
604,72	7378,25
605,17	7135,75
605,63	7342,75
606,08	7227,75
606,54	6749,50
606,99	7214,50
607,45	7050,00
607,90	7173,75
608,36	7405,25
608,81	7162,25
609,27	8004,00
609,72	7416,00
610,18	7175,50
610,63	6983,00
611,09	7271,00
611,54	6819,75
612,00	7800,75
612,45	7305,50
612,91	7242,50
613,36	8281,75
613,82	6843,25
614,27	6795,25
614,73	6844,25
615,18	6819,00
615,64	7108,75
616,09	7165,00
616,54	6891,75
617,00	7101,50
617,45	7180,50
617,91	7443,50
618,36	6967,50
618,82	7044,25
619,27	7073,00
619,72	7433,00
620,18	7061,50
620,63	7413,25
621,09	7489,00
621,54	7108,25
622,00	7483,00
622,45	7576,75
622,90	7492,50
623,36	6981,50
623,81	6918,25
624,27	7553,50
624,72	6780,75
625,17	7066,75
625,63	7232,75
626,08	7015,50
626,54	7139,00
626,99	7218,00
627,44	6930,00
627,90	7364,50
628,35	7395,25
628,81	6707,75
629,26	7133,75
629,71	7239,00
630,17	6980,50
630,62	7296,25
631,07	7104,75
631,53	7385,75
631,98	7220,25
632,43	7483,75
632,89	6992,75
633,34	7020,50
633,79	6953,50
634,25	6976,25
634,70	6839,25
635,15	7052,50
635,61	6921,50
636,06	6788,00
636,51	7080,00
636,97	7118,25
637,42	6888,75
637,87	7355,25
638,33	7450,25
638,78	7022,50
639,23	7109,75
639,69	6809,25
640,14	6705,50
640,59	7249,75
641,05	7482,50
641,50	6781,50
641,95	7065,25
642,40	7017,50
642,86	6773,50
643,31	6994,50
643,76	7317,75
644,22	6977,00
644,67	6860,00
645,12	7048,25
645,57	6909,50
646,03	7189,50
646,48	7194,25
646,93	7229,00
647,38	7386,50
647,84	7236,25
648,29	7243,50
648,74	6872,75
649,19	7537,00
649,65	7292,25
650,10	8607,00
650,55	6862,75
651,00	6909,75
651,46	6959,00
651,91	7199,00
652,36	6885,75
652,81	7093,25
653,27	7028,00
653,72	6969,00
654,17	7091,50
654,62	7184,75
655,07	7004,00
655,53	6829,75
655,98	7380,25
656,43	6914,25
656,88	7110,25
657,33	7299,75
657,79	7325,75
658,24	6912,50
658,69	7173,75
659,14	6872,50
659,59	8599,50
660,05	6992,50
660,50	7430,75
660,95	7061,50
661,40	6882,00
661,85	7032,75
662,30	6850,50
662,76	6702,25
663,21	7245,00
663,66	7017,50
664,11	7003,00
664,56	7096,25
665,01	6778,50
665,47	7166,50
665,92	6809,75
666,37	7189,75
666,82	7117,00
667,27	7968,75
667,72	7560,25
668,17	6851,00
668,62	7264,25
669,08	6868,75
669,53	7894,50
669,98	6702,25
670,43	6855,50
670,88	7476,50
671,33	7122,00
671,78	7723,00
672,23	7932,50
672,69	7088,25
673,14	7102,75
673,59	7488,25
674,04	8216,75
674,49	7194,75
674,94	7190,00
675,39	6720,25
675,84	6776,75
676,29	7080,50
676,74	7048,50
677,19	7014,75
677,64	7008,25
678,10	8086,25
678,55	6965,50
679,00	6992,50
679,45	7134,50
679,90	6982,75
680,35	7177,75
680,80	7091,50
681,25	6583,00
681,70	6583,50
682,15	7014,50
682,60	7084,25
683,05	7321,25
683,50	7283,25
683,95	7182,25
684,40	7536,50
684,85	7305,50
685,30	7134,50
685,75	7237,25
686,20	7042,50
686,65	6838,75
687,10	7143,50
687,55	6919,50
688,00	7138,50
688,45	7080,75
688,90	8095,75
689,35	7320,75
689,80	6693,75
690,25	7053,50
690,70	7047,25
691,15	6681,00
691,60	7037,50
692,05	6724,75
692,50	7139,25
692,95	7046,75
693,40	7307,25
693,85	7250,25
694,30	7128,50
694,75	7107,00
695,20	8629,75
695,65	7157,50
696,10	7144,50
696,55	7791,50
697,00	7048,50
697,45	6949,50
697,90	7243,50
698,35	6877,50
698,80	7377,75
699,24	7354,25
699,69	6934,25
700,14	6981,50
700,59	7307,50
701,04	7391,25
701,49	8476,00
701,94	6748,50
702,39	7651,00
702,84	6954,50
703,29	6939,75
703,74	7206,50
704,19	7035,00
704,63	6976,50
705,08	7542,00
705,53	7456,75
705,98	7339,75
706,43	6741,00
706,88	7366,50
707,33	7051,25
707,78	7068,75
708,22	7195,00
708,67	7392,75
709,12	7143,00
709,57	6980,50
710,02	7067,25
710,47	7101,25
710,92	6958,50
711,37	7307,25
711,81	7156,00
712,26	7170,25
712,71	6857,00
713,16	7782,25
713,61	7088,75
714,06	7186,50
714,50	7596,75
714,95	7372,50
715,40	7015,50
715,85	7121,25
716,30	6994,50
716,75	7000,00
717,19	6782,00
717,64	6726,25
718,09	7224,00
718,54	7777,50
718,99	6804,50
719,43	6778,50
719,88	7135,00
720,33	7053,50
720,78	7023,75
721,23	7193,75
721,67	6964,00
722,12	7201,00
722,57	7050,25
723,02	6763,00
723,47	6658,25
723,91	7114,50
724,36	6683,25
724,81	7272,25
725,26	6698,25
725,70	7019,50
726,15	7055,25
726,60	7091,50
727,05	7677,25
727,49	6805,50
727,94	7601,00
728,39	7220,00
728,84	7008,25
729,28	7506,25
729,73	6927,25
730,18	7380,00
730,63	6797,25
731,07	7174,00
731,52	7264,50
731,97	7181,00
732,41	7202,00
732,86	6871,25
733,31	7331,00
733,76	7179,50
734,20	6914,50
734,65	7275,25
735,10	7326,25
735,54	7099,00
735,99	8082,00
736,44	6901,00
736,89	7143,75
737,33	7359,00
737,78	7332,50
738,23	7134,50
738,67	7028,25
739,12	7120,25
739,57	6749,00
740,01	7486,00
740,46	7225,00
740,91	6896,00
741,35	7249,50
741,80	7302,25
742,25	7122,50
742,69	7156,50
743,14	6825,50
743,59	6865,50
744,03	7083,00
744,48	7450,50
744,92	7435,75
745,37	7129,25
745,82	7387,75
746,26	7639,50
746,71	6538,00
747,16	6867,00
747,60	6708,25
748,05	7257,25
748,49	7085,50
748,94	6955,75
749,39	7204,50
749,83	8089,25
750,28	7135,75
750,73	7018,00
751,17	6775,00
751,62	6965,25
752,06	6980,00
752,51	7073,75
752,95	7756,50
753,40	6919,25
753,85	7026,50
754,29	6792,25
754,74	6979,25
755,18	6825,00
755,63	7036,00
756,07	7135,00
756,52	7485,25
756,97	7032,50
757,41	7525,50
757,86	7078,50
758,30	7009,50
758,75	7058,50
759,19	6969,50
759,64	6751,75
760,08	6988,75
760,53	7256,25
760,98	7062,75
761,42	7308,75
761,87	7523,25
762,31	6969,75
762,76	6753,25
763,20	7029,25
763,65	7320,25
764,09	7058,50
764,54	6760,25
764,98	6898,75
765,43	7219,75
765,87	6870,75
766,32	6759,25
766,76	6908,25
767,21	7072,75
767,65	7115,00
768,10	7160,00
768,54	7319,50
768,99	7044,00
769,43	7723,25
769,88	6822,00
770,32	7005,75
770,77	6851,25
771,21	6757,75
771,65	7303,75
772,10	7156,50
772,54	7194,00
772,99	6742,00
773,43	6965,50
773,88	6988,75
774,32	6572,25
774,77	7025,25
775,21	6858,75
775,65	7209,00
776,10	7076,50
776,54	6776,25
776,99	7015,00
777,43	6995,75
777,88	7247,25
778,32	7299,25
778,76	6925,00
779,21	7142,50
779,65	8078,50
780,10	7636,25
780,54	7127,50
780,99	7405,00
781,43	7280,75
781,87	6878,25
782,32	7199,50
782,76	6807,00
783,20	7004,25
783,65	7301,00
784,09	7385,25
784,54	7077,50
784,98	6955,75
785,42	7003,50
785,87	6902,50
786,31	7359,25
786,75	7336,25
787,20	7508,25
787,64	6788,75
788,09	6912,25
788,53	7170,00
788,97	6842,50
789,42	7004,00
789,86	6920,25
790,30	7100,75
790,75	6833,00
791,19	6884,00
791,63	7442,25
792,08	6952,50
792,52	7087,50
792,96	6935,25
793,41	8562,25
793,85	7422,00
794,29	7125,75
794,74	7177,50
795,18	7100,50
795,62	6818,75
796,06	7225,75
796,51	7051,25
796,95	7095,00
797,39	6920,50
797,84	6791,75
798,28	7075,75
798,72	7461,50
799,16	7127,50
799,61	6815,25
800,05	7617,50
800,49	7239,25
800,94	6873,25
801,38	7187,00
801,82	7103,25
802,26	6861,75
802,71	7436,00
803,15	7673,25
803,59	7326,50
804,03	7133,00
804,48	7047,50
804,92	6901,25
805,36	7701,00
805,80	7887,50
806,25	7703,00
806,69	7324,50
807,13	7801,50
807,57	6948,75
808,01	7121,00
808,46	6803,00
808,90	7267,25
809,34	7140,50
809,78	7013,75
810,23	6836,00
810,67	7296,25
811,11	7578,00
811,55	8290,00
811,99	6947,00
812,44	6899,50
812,88	7258,00
813,32	7701,50
813,76	7396,75
814,20	7133,00
814,64	7334,75
815,09	7309,00
815,53	7164,00
815,97	6975,25
816,41	6824,25
816,85	6907,50
817,29	7300,00
817,74	7080,00
818,18	7448,75
818,62	6978,50
819,06	7303,00
819,50	7498,00
819,94	7075,00
820,39	7240,25
820,83	6966,50
821,27	7123,50
821,71	6885,25
822,15	7622,50
822,59	6862,75
823,03	7144,50
823,47	7256,50
823,92	6842,75
824,36	7144,00
824,80	7089,25
825,24	7170,25
825,68	7230,25
826,12	6877,50
826,56	6983,50
827,00	6579,00
827,44	7156,25
827,88	7348,00
828,33	7508,00
828,77	6935,75
829,21	7410,50
829,65	7225,25
830,09	6930,50
830,53	7708,25
830,97	6988,75
831,41	7926,25
831,85	7459,75
832,29	7299,75
832,73	6732,25
833,17	7081,00
833,61	7041,25
834,05	7427,25
834,49	7307,25
834,93	7072,50
835,37	6948,50
835,82	7438,75
836,26	7053,75
836,70	7125,50
837,14	7003,50
837,58	7437,75
838,02	6916,50
838,46	6898,50
838,90	7150,00
839,34	7047,50
839,78	7690,25
840,22	7874,50
840,66	7188,00
841,10	7527,00
841,54	6675,50
841,98	6953,75
842,42	6740,50
842,86	6979,75
843,30	7303,50
843,74	7086,25
844,18	7301,25
844,62	7178,50
845,06	6876,50
845,50	7309,75
845,94	7105,50
846,37	7293,25
846,81	6914,50
847,25	6881,25
847,69	7081,75
848,13	6852,50
848,57	6983,00
849,01	6933,50
849,45	7304,25
849,89	7465,75
850,33	7318,00
850,77	7063,00
851,21	7380,25
851,65	6847,25
852,09	7230,25
852,53	7447,25
852,97	6916,50
853,40	6914,50
853,84	7303,25
854,28	6771,50
854,72	7338,75
855,16	6690,75
855,60	6928,75
856,04	7453,25
856,48	7601,25
856,92	7106,50
857,36	7216,25
857,79	7123,25
858,23	6814,75
858,67	7565,25
859,11	6597,50
859,55	6940,25
859,99	6980,25
860,43	7044,75
860,87	7093,25
861,30	7314,25
861,74	6927,25
862,18	7004,75
862,62	7189,75
863,06	6935,25
863,50	6961,75
863,94	7364,25
864,37	6843,00
864,81	7061,25
865,25	7030,00
865,69	6724,00
866,13	7066,50
866,57	6658,25
867,00	7333,75
867,44	6818,50
867,88	7179,25
868,32	7014,00
868,76	6870,50
869,19	7207,00
869,63	7121,50
870,07	7575,50
870,51	7990,75
870,95	6747,75
871,38	7051,00
871,82	7095,75
872,26	6877,50
872,70	7125,75
873,14	7252,00
873,57	7045,25
874,01	7412,25
874,45	7330,25
874,89	7032,25
875,32	6769,25
875,76	7428,50
876,20	6609,75
876,64	7219,00
877,07	7035,00
877,51	7074,50
877,95	7037,75
878,39	7016,25
878,82	7231,75
879,26	7027,00
879,70	7611,75
880,14	6845,00
880,57	6816,50
881,01	6927,00
881,45	7148,00
881,89	7343,75
882,32	7069,25
882,76	7036,25
883,20	6989,75
883,63	7016,75
884,07	6774,00
884,51	7287,00
884,94	7109,50
885,38	7280,00
885,82	7338,25
886,26	6947,25
886,69	6859,00
887,13	7641,25
887,57	6791,50
888,00	6859,25
888,44	7008,50
888,88	6937,00
889,31	8178,00
889,75	6753,75
890,19	7430,25
890,62	6922,50
891,06	7253,00
891,50	7208,75
891,93	6667,50
892,37	6881,00
892,81	6971,00
893,24	6775,00
893,68	6919,25
894,11	7167,25
894,55	6961,75
894,99	7299,75
895,42	6983,00
895,86	6853,00
896,30	7099,25
896,73	7213,25
897,17	6849,00
897,60	6819,25
898,04	6872,75
898,48	7176,00
898,91	7418,75
899,35	6854,25
899,78	6932,50
900,22	6916,25
900,66	7337,50
901,09	7218,25
901,53	6941,25
901,96	7732,25
902,40	7776,50
902,84	6833,25
903,27	6971,25
903,71	7626,25
904,14	6879,25
904,58	7175,00
905,01	6887,00
905,45	6978,75
905,88	6756,00
906,32	7488,00
906,76	7107,00
907,19	7401,75
907,63	7122,50
908,06	7017,00
908,50	7297,50
908,93	7595,75
909,37	7023,75
909,80	6719,50
910,24	7138,75
910,67	7099,25
911,11	7008,25
911,54	6919,25
911,98	7013,00
912,41	7107,50
912,85	6928,50
913,28	7250,50
913,72	7247,00
914,15	7078,75
914,59	6735,25
915,02	6784,50
915,46	6955,50
915,89	6880,00
916,33	7375,75
916,76	6947,00
917,20	7471,00
917,63	6929,25
918,07	7366,75
918,50	6820,25
918,94	7059,25
919,37	6979,00
919,81	7276,00
920,24	7328,25
920,67	7068,25
921,11	7636,50
921,54	7237,75
921,98	6960,75
922,41	6768,75
922,85	6761,25
923,28	7136,25
923,72	7595,50
924,15	7292,75
924,58	6674,50
925,02	7298,00
925,45	6801,25
925,89	7303,50
926,32	7836,50
926,75	6992,00
927,19	7238,00
927,62	6742,25
928,06	7857,25
928,49	7059,25
928,92	6739,75
929,36	7398,00
929,79	6969,50
930,23	7173,75
930,66	7367,75
931,09	6870,00
931,53	7219,25
931,96	6588,50
932,39	7654,50
932,83	7380,75
933,26	8005,50
933,70	7001,75
934,13	7430,75
934,56	7384,25
935,00	7295,00
935,43	7209,00
935,86	6797,50
936,30	7004,00
936,73	6902,75
937,16	7197,00
937,60	6814,50
938,03	7237,25
938,46	6920,00
938,90	6961,25
939,33	7314,25
939,76	6851,50
940,19	7075,50
940,63	7330,50
941,06	7771,50
941,49	6974,25
941,93	7403,50
942,36	6842,00
942,79	6968,00
943,23	7368,25
943,66	6761,75
944,09	6699,75
944,52	7297,25
944,96	6952,75
945,39	7233,25
945,82	7059,75
946,26	7111,25
946,69	7130,00
947,12	7471,25
947,55	7024,50
947,99	7085,50
948,42	7241,50
948,85	6689,75
949,28	6760,25
949,72	6782,50
950,15	7990,00
950,58	7539,00
951,01	7016,25
951,45	6909,00
951,88	7197,50
952,31	6688,50
952,74	7357,00
953,17	6974,00
953,61	7677,50
954,04	6699,75
954,47	6899,75
954,90	6944,75
955,33	6867,25
955,77	6943,00
956,20	7244,00
956,63	6779,50
957,06	7279,75
957,49	8123,00
957,93	6777,75
958,36	7264,25
958,79	7096,75
959,22	6963,75
959,65	6881,00
960,08	6939,25
960,52	6577,00
960,95	6966,75
961,38	7275,50
961,81	7273,50
962,24	7357,25
962,67	7267,00
963,11	6898,25
963,54	7101,50
963,97	6936,25
964,40	7060,25
964,83	6963,25
965,26	6870,75
965,69	7317,25
966,13	6921,00
966,56	6993,75
966,99	7265,75
967,42	6898,00
967,85	6895,00
968,28	7455,00
968,71	8504,25
969,14	7291,00
969,57	7032,00
970,01	7184,75
970,44	6799,25
970,87	6891,75
971,30	7239,75
971,73	6925,00
972,16	7039,00
972,59	6725,25
973,02	6834,75
973,45	7043,25
973,88	7230,00
974,31	7002,75
974,74	7279,75
975,17	7127,25
975,61	6879,25
976,04	6925,50
976,47	6847,75
976,90	7127,75
977,33	6811,00
977,76	7298,50
978,19	7104,75
978,62	6998,00
979,05	6967,00
979,48	6971,25
979,91	7373,50
980,34	7253,25
980,77	6871,75
981,20	7154,25
981,63	7376,75
982,06	7052,50
982,49	7055,50
982,92	6902,75
983,35	6968,75
983,78	6894,25
984,21	7367,50
984,64	7327,75
985,07	6698,50
985,50	6552,25
985,93	7000,00
986,36	7276,00
986,79	6959,00
987,22	6815,00
987,65	7242,00
988,08	7051,00
988,51	7093,75
988,94	6995,75
989,37	7137,00
989,80	7039,75
990,23	6960,75
990,66	7159,75
991,09	7079,50
991,51	7091,00
991,94	7677,50
992,37	6927,75
992,80	6814,75
993,23	7021,75
993,66	6789,75
994,09	6913,00
994,52	7210,75
994,95	7322,25
995,38	7129,25
995,81	7062,50
996,24	6649,00
996,67	6673,75
997,09	6549,75
997,52	7377,00
997,95	7328,00
998,38	6934,75
998,81	7174,00
999,24	6770,25
999,67	7539,00
1000,10	7058,25
1000,53	7096,75
1000,95	7535,25
1001,38	6835,75
1001,81	7100,50
1002,24	7279,00
1002,67	7053,75
1003,10	7156,75
1003,53	7102,75
1003,95	7275,50
1004,38	6813,75
1004,81	7158,25
1005,24	7078,75
1005,67	7486,00
1006,10	7040,75
1006,52	6717,00
1006,95	7153,00
1007,38	7024,75
1007,81	6875,75
1008,24	6712,25
1008,67	6964,75
1009,09	6889,25
1009,52	8328,25
1009,95	7424,25
1010,38	7388,50
1010,81	7196,25
1011,23	7265,25
1011,66	7400,00
1012,09	6997,75
1012,52	7270,75
1012,95	7097,00
1013,37	7177,25
1013,80	7250,75
1014,23	6788,75
1014,66	7518,50
1015,08	6649,75
1015,51	7337,00
1015,94	6895,00
1016,37	7105,25
1016,80	6779,25
1017,22	7219,75
1017,65	6935,25
1018,08	6997,50
1018,51	7015,00
1018,93	6601,25
1019,36	8073,00
1019,79	7449,75
1020,21	7270,75
1020,64	6991,00
1021,07	7051,25
1021,50	7171,00
1021,92	7144,75
1022,35	7230,75
1022,78	7003,50
1023,21	8359,00
1023,63	7400,00
1024,06	7387,00
1024,49	7242,25
1024,91	7155,50
1025,34	7173,00
1025,77	7277,00
1026,19	6799,50
1026,62	6837,25
1027,05	7906,25
1027,47	7279,25
1027,90	7229,00
1028,33	7105,50
1028,75	7173,00
1029,18	6847,50
1029,61	7884,25
1030,03	7093,00
1030,46	7016,25
1030,89	7171,25
1031,31	7578,25
1031,74	6764,75
1032,17	7125,00
1032,59	7331,75
1033,02	6956,50
1033,45	7374,50
1033,87	6909,00
1034,30	6826,25
1034,73	7210,50
1035,15	7362,75
1035,58	6919,00
1036,00	7661,75
1036,43	6894,00
1036,86	6979,25
1037,28	7193,25
1037,71	6687,50
1038,13	7356,50
1038,56	7390,25
1038,99	7367,00
1039,41	7465,75
1039,84	7646,50
1040,26	7016,50
1040,69	7049,75
1041,11	7193,75
1041,54	6994,75
1041,97	7514,00
1042,39	7542,75
1042,82	7305,25
1043,24	7380,25
1043,67	7071,75
1044,09	7352,00
1044,52	6877,75
1044,95	7077,00
1045,37	6985,50
1045,80	6770,25
1046,22	7131,50
1046,65	7260,50
1047,07	6845,50
1047,50	7206,00
1047,92	7359,75
1048,35	6817,75
1048,77	7443,50
1049,20	7263,75
1049,62	7372,00
1050,05	7024,75
1050,47	7023,25
1050,90	7280,25
1051,32	7297,50
1051,75	7533,00
1052,17	7480,00
1052,60	7173,25
1053,02	7378,50
1053,45	6567,25
1053,87	7157,75
1054,30	6644,00
1054,72	7025,50
1055,15	6889,75
1055,57	7187,25
1056,00	7299,75
1056,42	7774,00
1056,85	7471,25
1057,27	7435,00
1057,70	7100,50
1058,12	8480,25
1058,54	6901,50
1058,97	7252,25
1059,39	7357,75
1059,82	7025,25
1060,24	7025,00
1060,67	6962,75
1061,09	7343,75
1061,51	7165,75
1061,94	6986,50
1062,36	7378,50
1062,79	7573,75
1063,21	7177,75
1063,64	7052,75
1064,06	6893,50
1064,48	7373,75
1064,91	7409,50
1065,33	7002,00
1065,76	6865,50
1066,18	6689,75
1066,60	7390,00
1067,03	7128,25
1067,45	7117,25
1067,87	7194,50
1068,30	6989,25
1068,72	7718,25
1069,15	7133,25
1069,57	6962,00
1069,99	6768,00
1070,42	7433,25
1070,84	7434,50
1071,26	7401,00
1071,69	7038,25
1072,11	7341,00
1072,53	6946,00
1072,96	6851,25
1073,38	6738,25
1073,80	7221,50
1074,23	6991,75
1074,65	6794,00
1075,07	6989,25
1075,50	6987,25
1075,92	7211,00
1076,34	6921,00
1076,77	6884,00
1077,19	7051,25
1077,61	7388,75
1078,04	6971,50
1078,46	7289,75
1078,88	7574,00
1079,30	6600,00
1079,73	7186,00
1080,15	6958,75
1080,57	7050,50
1081,00	7260,25
1081,42	7078,75
1081,84	6995,00
1082,26	7209,50
1082,69	7062,25
1083,11	7058,50
1083,53	7096,75
1083,95	7131,50
1084,38	7403,50
1084,80	7092,75
1085,22	7012,75
1085,64	7454,00
1086,07	6871,25
1086,49	6999,00
1086,91	7218,00
1087,33	6668,25
1087,76	7293,25
1088,18	15533,50
1088,60	7176,25
1089,02	6898,50
1089,45	6981,00
1089,87	6986,00
1090,29	7458,50
1090,71	7051,75
1091,13	6824,25
1091,56	6985,50
1091,98	7018,75
1092,40	6842,50
1092,82	7087,75
1093,24	6961,75
1093,66	7059,75
1094,09	7044,50
1094,51	7102,25
1094,93	6971,00
1095,35	7121,75
1095,77	6898,25
1096,19	7067,25
1096,62	7192,50
1097,04	6806,00
1097,46	7081,00
1097,88	6920,50
1098,30	7267,75
1098,72	7187,25
1099,15	7228,25
1099,57	7034,50
1099,99	6997,25
1100,41	6858,75
1100,83	6972,25
1101,25	6892,50
1101,67	7069,25
1102,09	6726,25
1102,52	6979,50
1102,94	6999,50
1103,36	7032,25
1103,78	7131,50
1104,20	6926,50
1104,62	7603,00
1105,04	6479,50
1105,46	7100,00
1105,88	7040,50
1106,30	6813,25
1106,73	7002,25
1107,15	6479,25
1107,57	6698,75
1107,99	7355,75
1108,41	6692,50
1108,83	7236,75
1109,25	7137,25
1109,67	7122,00
1110,09	6512,25
1110,51	6917,50
1110,93	6576,25
1111,35	6814,75
1111,77	6652,50
1112,19	6662,25
1112,61	6523,75
1113,03	6788,75
1113,45	6697,25
1113,87	6690,75
1114,29	6914,50
1114,71	7053,00
1115,13	6755,50
1115,55	6831,00
1115,98	6736,50
1116,40	7040,25
1116,82	7021,50
1117,24	6759,50
1117,66	6579,00
1118,08	2086,00
1118,50	2190,50
1118,91	2184,75
1119,33	2184,50
>>>>>End Processed Spectral Data<<<<<
