SpectraSuite Data File
++++++++++++++++++++++++++++++++++++
Date: Wed May 16 14:16:49 EEST 2012
User: OO Maya
Dark Spectrum Present: No
Reference Spectrum Present: No
Number of Sampled Component Spectra: 1
Spectrometers: MAYP11278
Integration Time (usec): 400000 (MAYP11278)
Spectra Averaged: 1 (MAYP11278)
Boxcar Smoothing: 0 (MAYP11278)
Correct for Electrical Dark: No (MAYP11278)
Strobe/Lamp Enabled: No (MAYP11278)
Correct for Detector Non-linearity: No (MAYP11278)
Correct for Stray Light: No (MAYP11278)
Number of Pixels in Processed Spectrum: 2068
>>>>>Begin Processed Spectral Data<<<<<
188,05	2290,00
188,53	2211,00
189,01	2180,00
189,49	2181,00
189,96	2750,00
190,44	2767,00
190,92	2740,00
191,40	2778,00
191,88	2808,00
192,36	2769,00
192,83	2739,00
193,31	2712,00
193,79	2724,00
194,27	2782,00
194,75	2769,00
195,23	2750,00
195,70	2823,00
196,18	2778,00
196,66	2779,00
197,14	2865,00
197,62	2753,00
198,09	2747,00
198,57	2735,00
199,05	2753,00
199,53	2773,00
200,01	2788,00
200,48	2756,00
200,96	2768,00
201,44	2810,00
201,92	2787,00
202,39	2811,00
202,87	2740,00
203,35	2788,00
203,83	2763,00
204,31	2788,00
204,78	2842,00
205,26	2771,00
205,74	2753,00
206,22	2850,00
206,69	2761,00
207,17	2813,00
207,65	2903,00
208,13	2795,00
208,60	2791,00
209,08	2753,00
209,56	2804,00
210,04	2819,00
210,51	2771,00
210,99	2764,00
211,47	2832,00
211,94	2781,00
212,42	2759,00
212,90	2862,00
213,38	2817,00
213,85	2777,00
214,33	2855,00
214,81	2800,00
215,29	2826,00
215,76	2794,00
216,24	2810,00
216,72	2803,00
217,19	2814,00
217,67	2804,00
218,15	2759,00
218,62	2829,00
219,10	2768,00
219,58	2750,00
220,05	2769,00
220,53	2766,00
221,01	2796,00
221,49	2774,00
221,96	2825,00
222,44	2761,00
222,92	2803,00
223,39	2813,00
223,87	2825,00
224,35	2812,00
224,82	2784,00
225,30	2769,00
225,78	2795,00
226,25	2770,00
226,73	2783,00
227,21	2832,00
227,68	2777,00
228,16	2783,00
228,63	2810,00
229,11	2827,00
229,59	2791,00
230,06	2784,00
230,54	2774,00
231,02	2803,00
231,49	2852,00
231,97	2796,00
232,45	2805,00
232,92	2752,00
233,40	2810,00
233,87	2791,00
234,35	2919,00
234,83	2815,00
235,30	2746,00
235,78	2780,00
236,25	2729,00
236,73	2813,00
237,21	2856,00
237,68	2776,00
238,16	2784,00
238,63	2814,00
239,11	2781,00
239,59	2792,00
240,06	2756,00
240,54	2803,00
241,01	2831,00
241,49	2823,00
241,96	2764,00
242,44	2822,00
242,92	2853,00
243,39	2750,00
243,87	2769,00
244,34	2831,00
244,82	2846,00
245,29	2805,00
245,77	2845,00
246,24	2860,00
246,72	2748,00
247,20	2810,00
247,67	2770,00
248,15	2836,00
248,62	2831,00
249,10	2722,00
249,57	2811,00
250,05	2817,00
250,52	2824,00
251,00	2869,00
251,47	2792,00
251,95	2903,00
252,42	2847,00
252,90	2776,00
253,37	2830,00
253,85	2817,00
254,32	2790,00
254,80	2806,00
255,27	2802,00
255,75	2848,00
256,22	2799,00
256,70	2822,00
257,17	2801,00
257,65	2825,00
258,12	2930,00
258,60	2815,00
259,07	2769,00
259,55	2805,00
260,02	2809,00
260,50	2862,00
260,97	2804,00
261,45	2783,00
261,92	2849,00
262,40	2753,00
262,87	2805,00
263,35	2814,00
263,82	2761,00
264,30	2828,00
264,77	2849,00
265,25	2776,00
265,72	2817,00
266,19	2803,00
266,67	2818,00
267,14	2770,00
267,62	2804,00
268,09	2810,00
268,57	2805,00
269,04	2764,00
269,51	2772,00
269,99	2757,00
270,46	2819,00
270,94	2867,00
271,41	2793,00
271,89	2792,00
272,36	2763,00
272,83	2770,00
273,31	2740,00
273,78	2789,00
274,26	2942,00
274,73	2841,00
275,20	2819,00
275,68	2792,00
276,15	2818,00
276,63	2840,00
277,10	2817,00
277,57	2780,00
278,05	2784,00
278,52	2765,00
279,00	2940,00
279,47	2798,00
279,94	2769,00
280,42	2949,00
280,89	2858,00
281,36	2928,00
281,84	2794,00
282,31	2853,00
282,78	2797,00
283,26	2797,00
283,73	2817,00
284,21	2818,00
284,68	2762,00
285,15	2794,00
285,63	2836,00
286,10	2798,00
286,57	2829,00
287,05	2758,00
287,52	2788,00
287,99	2886,00
288,47	2810,00
288,94	2817,00
289,41	2735,00
289,89	2862,00
290,36	2774,00
290,83	2785,00
291,30	2795,00
291,78	2837,00
292,25	2902,00
292,72	2789,00
293,20	2852,00
293,67	2784,00
294,14	2821,00
294,62	2839,00
295,09	2785,00
295,56	2798,00
296,03	2842,00
296,51	2876,00
296,98	2887,00
297,45	2820,00
297,93	2816,00
298,40	2843,00
298,87	2803,00
299,34	2855,00
299,82	2794,00
300,29	2839,00
300,76	2780,00
301,23	2835,00
301,71	2861,00
302,18	2818,00
302,65	2787,00
303,12	2839,00
303,60	2826,00
304,07	2761,00
304,54	2783,00
305,01	2772,00
305,49	2804,00
305,96	2781,00
306,43	2827,00
306,90	2831,00
307,38	2782,00
307,85	2772,00
308,32	2820,00
308,79	2783,00
309,27	2847,00
309,74	2833,00
310,21	2819,00
310,68	2850,00
311,15	2836,00
311,63	2778,00
312,10	2857,00
312,57	2809,00
313,04	2888,00
313,51	2804,00
313,99	2816,00
314,46	2806,00
314,93	2768,00
315,40	2793,00
315,87	2832,00
316,34	2826,00
316,82	2809,00
317,29	2824,00
317,76	2812,00
318,23	2924,00
318,70	2819,00
319,17	2796,00
319,65	2757,00
320,12	2825,00
320,59	2887,00
321,06	2838,00
321,53	2781,00
322,00	2743,00
322,48	2794,00
322,95	2898,00
323,42	2803,00
323,89	2886,00
324,36	2765,00
324,83	2816,00
325,30	2770,00
325,78	2784,00
326,25	2801,00
326,72	2793,00
327,19	2812,00
327,66	2819,00
328,13	2818,00
328,60	2806,00
329,07	2788,00
329,54	2791,00
330,02	2812,00
330,49	2790,00
330,96	2841,00
331,43	2833,00
331,90	2885,00
332,37	2767,00
332,84	2882,00
333,31	2817,00
333,78	2826,00
334,25	2877,00
334,72	2817,00
335,20	2801,00
335,67	2957,00
336,14	2753,00
336,61	2792,00
337,08	2801,00
337,55	2809,00
338,02	2787,00
338,49	2794,00
338,96	2852,00
339,43	2858,00
339,90	2767,00
340,37	2775,00
340,84	2765,00
341,31	2788,00
341,78	2847,00
342,25	2793,00
342,72	2827,00
343,19	2851,00
343,67	2817,00
344,14	2781,00
344,61	2807,00
345,08	2750,00
345,55	2821,00
346,02	2813,00
346,49	2799,00
346,96	2773,00
347,43	2833,00
347,90	2798,00
348,37	2851,00
348,84	2800,00
349,31	2789,00
349,78	2828,00
350,25	2835,00
350,72	2808,00
351,19	2791,00
351,66	2797,00
352,13	2867,00
352,60	2822,00
353,07	2784,00
353,54	2817,00
354,01	2816,00
354,48	2844,00
354,94	2823,00
355,41	2837,00
355,88	2869,00
356,35	2770,00
356,82	2859,00
357,29	2761,00
357,76	2920,00
358,23	2806,00
358,70	2748,00
359,17	2814,00
359,64	2776,00
360,11	2801,00
360,58	2830,00
361,05	2863,00
361,52	2807,00
361,99	2808,00
362,46	2826,00
362,93	2815,00
363,39	2803,00
363,86	2895,00
364,33	2806,00
364,80	2780,00
365,27	2807,00
365,74	2808,00
366,21	2762,00
366,68	2822,00
367,15	2788,00
367,62	2802,00
368,09	2764,00
368,55	2789,00
369,02	2845,00
369,49	2753,00
369,96	2843,00
370,43	2809,00
370,90	2773,00
371,37	2785,00
371,84	2817,00
372,31	2778,00
372,77	2738,00
373,24	2801,00
373,71	2829,00
374,18	2766,00
374,65	2759,00
375,12	2822,00
375,59	2749,00
376,05	2822,00
376,52	2793,00
376,99	2780,00
377,46	2752,00
377,93	2802,00
378,40	2808,00
378,86	2807,00
379,33	2812,00
379,80	2808,00
380,27	2850,00
380,74	2870,00
381,21	2822,00
381,67	2871,00
382,14	2869,00
382,61	2757,00
383,08	2843,00
383,55	2811,00
384,02	2843,00
384,48	2810,00
384,95	3011,00
385,42	2822,00
385,89	2784,00
386,36	2791,00
386,82	2886,00
387,29	2774,00
387,76	2763,00
388,23	2852,00
388,69	2847,00
389,16	2881,00
389,63	2770,00
390,10	2847,00
390,57	2805,00
391,03	2823,00
391,50	2823,00
391,97	2825,00
392,44	2809,00
392,90	2794,00
393,37	2802,00
393,84	2948,00
394,31	2815,00
394,77	2858,00
395,24	2772,00
395,71	2828,00
396,18	3009,00
396,64	2791,00
397,11	2827,00
397,58	2829,00
398,05	2763,00
398,51	2801,00
398,98	2802,00
399,45	2769,00
399,92	2845,00
400,38	2756,00
400,85	2807,00
401,32	2808,00
401,78	2838,00
402,25	2833,00
402,72	2820,00
403,18	2767,00
403,65	2865,00
404,12	2836,00
404,59	2856,00
405,05	2885,00
405,52	2845,00
405,99	2769,00
406,45	2852,00
406,92	2817,00
407,39	2881,00
407,85	2826,00
408,32	2818,00
408,79	2844,00
409,25	2743,00
409,72	2850,00
410,19	2775,00
410,65	2864,00
411,12	2795,00
411,59	2874,00
412,05	2800,00
412,52	2786,00
412,99	2834,00
413,45	2818,00
413,92	2807,00
414,39	2831,00
414,85	2907,00
415,32	2854,00
415,78	2871,00
416,25	2851,00
416,72	2831,00
417,18	2875,00
417,65	2828,00
418,12	2809,00
418,58	2839,00
419,05	2818,00
419,51	2864,00
419,98	2796,00
420,45	2826,00
420,91	2791,00
421,38	2823,00
421,84	2810,00
422,31	2841,00
422,78	2794,00
423,24	2798,00
423,71	2836,00
424,17	2843,00
424,64	2806,00
425,11	2846,00
425,57	2838,00
426,04	2875,00
426,50	2817,00
426,97	2884,00
427,43	2823,00
427,90	2860,00
428,37	2769,00
428,83	2855,00
429,30	2858,00
429,76	2798,00
430,23	2837,00
430,69	2958,00
431,16	2767,00
431,62	2808,00
432,09	2881,00
432,55	2867,00
433,02	2811,00
433,48	2801,00
433,95	2823,00
434,42	2793,00
434,88	2841,00
435,35	2783,00
435,81	2840,00
436,28	2808,00
436,74	2751,00
437,21	2854,00
437,67	2826,00
438,14	2831,00
438,60	2797,00
439,07	2798,00
439,53	3008,00
440,00	2835,00
440,46	2859,00
440,93	2863,00
441,39	2785,00
441,86	2822,00
442,32	2911,00
442,79	2780,00
443,25	2804,00
443,72	2837,00
444,18	2774,00
444,64	2936,00
445,11	2827,00
445,57	2844,00
446,04	2828,00
446,50	2829,00
446,97	2816,00
447,43	2802,00
447,90	2787,00
448,36	2786,00
448,83	2842,00
449,29	2826,00
449,75	2838,00
450,22	2825,00
450,68	2779,00
451,15	2822,00
451,61	2821,00
452,08	2863,00
452,54	2813,00
453,00	2860,00
453,47	2816,00
453,93	2801,00
454,40	2842,00
454,86	2858,00
455,32	2810,00
455,79	2835,00
456,25	2861,00
456,72	2808,00
457,18	2869,00
457,64	2822,00
458,11	2818,00
458,57	2780,00
459,04	2820,00
459,50	2806,00
459,96	2848,00
460,43	2821,00
460,89	2785,00
461,36	2858,00
461,82	2871,00
462,28	2793,00
462,75	2781,00
463,21	2887,00
463,67	2785,00
464,14	2827,00
464,60	2835,00
465,06	2777,00
465,53	2802,00
465,99	2820,00
466,45	2806,00
466,92	2835,00
467,38	2850,00
467,84	2813,00
468,31	2845,00
468,77	2849,00
469,23	2861,00
469,70	2786,00
470,16	2858,00
470,62	2809,00
471,09	2808,00
471,55	2798,00
472,01	2802,00
472,48	2805,00
472,94	2836,00
473,40	2867,00
473,87	2808,00
474,33	2796,00
474,79	2824,00
475,25	2784,00
475,72	2832,00
476,18	2801,00
476,64	2816,00
477,11	2831,00
477,57	2843,00
478,03	2875,00
478,49	2807,00
478,96	2860,00
479,42	2787,00
479,88	2883,00
480,35	2844,00
480,81	2810,00
481,27	2818,00
481,73	2829,00
482,20	2823,00
482,66	2795,00
483,12	2807,00
483,58	2757,00
484,05	2764,00
484,51	2890,00
484,97	2844,00
485,43	2803,00
485,89	2756,00
486,36	2797,00
486,82	2754,00
487,28	2817,00
487,74	2758,00
488,21	2781,00
488,67	2799,00
489,13	2835,00
489,59	2820,00
490,05	2847,00
490,52	2801,00
490,98	2822,00
491,44	2777,00
491,90	2790,00
492,36	2743,00
492,83	2865,00
493,29	2808,00
493,75	2813,00
494,21	2760,00
494,67	2794,00
495,14	2790,00
495,60	2785,00
496,06	2837,00
496,52	2778,00
496,98	2812,00
497,44	2879,00
497,91	2867,00
498,37	2794,00
498,83	2795,00
499,29	2794,00
499,75	2922,00
500,21	2792,00
500,67	2760,00
501,14	2807,00
501,60	2798,00
502,06	2836,00
502,52	2831,00
502,98	2773,00
503,44	2818,00
503,90	2833,00
504,37	2817,00
504,83	2819,00
505,29	2797,00
505,75	2778,00
506,21	2806,00
506,67	2844,00
507,13	2811,00
507,59	2872,00
508,05	2809,00
508,51	2761,00
508,98	2791,00
509,44	2739,00
509,90	2826,00
510,36	2822,00
510,82	2807,00
511,28	2845,00
511,74	2870,00
512,20	2781,00
512,66	2753,00
513,12	2785,00
513,58	2818,00
514,04	2774,00
514,51	2840,00
514,97	2857,00
515,43	2728,00
515,89	2844,00
516,35	2840,00
516,81	2849,00
517,27	2923,00
517,73	2820,00
518,19	2825,00
518,65	3000,00
519,11	2814,00
519,57	2763,00
520,03	2757,00
520,49	2779,00
520,95	2805,00
521,41	2858,00
521,87	2828,00
522,33	2816,00
522,79	2745,00
523,25	2866,00
523,71	2852,00
524,17	2790,00
524,63	2877,00
525,09	2838,00
525,55	2849,00
526,01	2877,00
526,47	2841,00
526,93	2837,00
527,39	2789,00
527,85	2805,00
528,31	2835,00
528,77	2838,00
529,23	2818,00
529,69	2770,00
530,15	2846,00
530,61	2828,00
531,07	2766,00
531,53	2857,00
531,99	2811,00
532,45	2831,00
532,91	2829,00
533,37	2807,00
533,83	2763,00
534,29	2776,00
534,75	2825,00
535,21	2789,00
535,67	2812,00
536,12	2796,00
536,58	2833,00
537,04	2771,00
537,50	2826,00
537,96	2825,00
538,42	2834,00
538,88	2891,00
539,34	2844,00
539,80	3056,00
540,26	2777,00
540,72	2900,00
541,18	2819,00
541,63	2757,00
542,09	2825,00
542,55	2841,00
543,01	2796,00
543,47	2930,00
543,93	2782,00
544,39	2888,00
544,85	2857,00
545,31	2821,00
545,76	2802,00
546,22	2850,00
546,68	2837,00
547,14	2830,00
547,60	2852,00
548,06	2837,00
548,52	2820,00
548,98	2808,00
549,43	2794,00
549,89	2904,00
550,35	2818,00
550,81	2753,00
551,27	2825,00
551,73	2845,00
552,19	2882,00
552,64	2844,00
553,10	2783,00
553,56	2828,00
554,02	2810,00
554,48	2785,00
554,93	2836,00
555,39	2840,00
555,85	2893,00
556,31	2824,00
556,77	2893,00
557,23	2755,00
557,68	2833,00
558,14	2891,00
558,60	2770,00
559,06	2823,00
559,52	2797,00
559,97	2805,00
560,43	2781,00
560,89	2818,00
561,35	2821,00
561,81	2813,00
562,26	2818,00
562,72	2797,00
563,18	2811,00
563,64	2861,00
564,09	2745,00
564,55	2813,00
565,01	2792,00
565,47	2804,00
565,92	2813,00
566,38	2842,00
566,84	2801,00
567,30	2778,00
567,75	2832,00
568,21	2862,00
568,67	2810,00
569,13	2802,00
569,58	2827,00
570,04	2805,00
570,50	2810,00
570,96	2848,00
571,41	2836,00
571,87	2838,00
572,33	2818,00
572,78	2824,00
573,24	2805,00
573,70	2779,00
574,16	2824,00
574,61	2865,00
575,07	2883,00
575,53	2778,00
575,98	2793,00
576,44	2727,00
576,90	2865,00
577,36	2787,00
577,81	2797,00
578,27	2775,00
578,73	2875,00
579,18	2812,00
579,64	2787,00
580,10	2831,00
580,55	2844,00
581,01	2821,00
581,47	2802,00
581,92	2825,00
582,38	2826,00
582,84	2751,00
583,29	2828,00
583,75	2842,00
584,21	2819,00
584,66	2828,00
585,12	2771,00
585,57	2942,00
586,03	2798,00
586,49	2793,00
586,94	2807,00
587,40	2828,00
587,86	2854,00
588,31	2814,00
588,77	2851,00
589,22	2804,00
589,68	2787,00
590,14	2835,00
590,59	2841,00
591,05	2789,00
591,51	2771,00
591,96	2865,00
592,42	2792,00
592,87	2821,00
593,33	2814,00
593,78	2829,00
594,24	2830,00
594,70	2817,00
595,15	2885,00
595,61	2823,00
596,06	2779,00
596,52	2880,00
596,98	2871,00
597,43	2841,00
597,89	2827,00
598,34	2773,00
598,80	2801,00
599,25	2865,00
599,71	2794,00
600,16	2837,00
600,62	2865,00
601,08	2851,00
601,53	2866,00
601,99	2783,00
602,44	2942,00
602,90	2800,00
603,35	2804,00
603,81	2756,00
604,26	2779,00
604,72	2849,00
605,17	2770,00
605,63	2862,00
606,08	2834,00
606,54	2742,00
606,99	2840,00
607,45	2807,00
607,90	2848,00
608,36	2844,00
608,81	2808,00
609,27	2923,00
609,72	2870,00
610,18	2811,00
610,63	2787,00
611,09	2831,00
611,54	2791,00
612,00	2904,00
612,45	2837,00
612,91	2808,00
613,36	2939,00
613,82	2776,00
614,27	2787,00
614,73	2769,00
615,18	2783,00
615,64	2821,00
616,09	2815,00
616,54	2778,00
617,00	2814,00
617,45	2816,00
617,91	2841,00
618,36	2805,00
618,82	2822,00
619,27	2828,00
619,72	2846,00
620,18	2792,00
620,63	2856,00
621,09	2833,00
621,54	2789,00
622,00	2862,00
622,45	2875,00
622,90	2851,00
623,36	2815,00
623,81	2781,00
624,27	2869,00
624,72	2777,00
625,17	2801,00
625,63	2843,00
626,08	2798,00
626,54	2820,00
626,99	2848,00
627,44	2749,00
627,90	2841,00
628,35	2845,00
628,81	2777,00
629,26	2825,00
629,71	2851,00
630,17	2775,00
630,62	2808,00
631,07	2804,00
631,53	2828,00
631,98	2834,00
632,43	2861,00
632,89	2780,00
633,34	2793,00
633,79	2788,00
634,25	2787,00
634,70	2786,00
635,15	2796,00
635,61	2785,00
636,06	2796,00
636,51	2798,00
636,97	2796,00
637,42	2774,00
637,87	2863,00
638,33	2847,00
638,78	2807,00
639,23	2797,00
639,69	2769,00
640,14	2757,00
640,59	2791,00
641,05	2872,00
641,50	2771,00
641,95	2807,00
642,40	2812,00
642,86	2773,00
643,31	2812,00
643,76	2822,00
644,22	2783,00
644,67	2781,00
645,12	2794,00
645,57	2783,00
646,03	2809,00
646,48	2818,00
646,93	2814,00
647,38	2847,00
647,84	2829,00
648,29	2824,00
648,74	2773,00
649,19	2889,00
649,65	2844,00
650,10	2975,00
650,55	2773,00
651,00	2787,00
651,46	2789,00
651,91	2824,00
652,36	2788,00
652,81	2809,00
653,27	2828,00
653,72	2814,00
654,17	2803,00
654,62	2849,00
655,07	2781,00
655,53	2787,00
655,98	2844,00
656,43	2769,00
656,88	2793,00
657,33	2805,00
657,79	2835,00
658,24	2804,00
658,69	2826,00
659,14	2775,00
659,59	3005,00
660,05	2815,00
660,50	2852,00
660,95	2815,00
661,40	2766,00
661,85	2820,00
662,30	2777,00
662,76	2738,00
663,21	2829,00
663,66	2787,00
664,11	2779,00
664,56	2833,00
665,01	2779,00
665,47	2833,00
665,92	2782,00
666,37	2817,00
666,82	2814,00
667,27	2928,00
667,72	2848,00
668,17	2758,00
668,62	2820,00
669,08	2798,00
669,53	2899,00
669,98	2776,00
670,43	2785,00
670,88	2856,00
671,33	2821,00
671,78	2879,00
672,23	2917,00
672,69	2801,00
673,14	2813,00
673,59	2866,00
674,04	2959,00
674,49	2846,00
674,94	2848,00
675,39	2750,00
675,84	2769,00
676,29	2816,00
676,74	2812,00
677,19	2804,00
677,64	2817,00
678,10	2909,00
678,55	2798,00
679,00	2806,00
679,45	2811,00
679,90	2783,00
680,35	2825,00
680,80	2795,00
681,25	2749,00
681,70	2754,00
682,15	2788,00
682,60	2852,00
683,05	2835,00
683,50	2809,00
683,95	2810,00
684,40	2846,00
684,85	2824,00
685,30	2830,00
685,75	2815,00
686,20	2795,00
686,65	2754,00
687,10	2809,00
687,55	2791,00
688,00	2822,00
688,45	2767,00
688,90	2921,00
689,35	2821,00
689,80	2762,00
690,25	2798,00
690,70	2794,00
691,15	2730,00
691,60	2812,00
692,05	2757,00
692,50	2806,00
692,95	2807,00
693,40	2843,00
693,85	2814,00
694,30	2813,00
694,75	2803,00
695,20	3006,00
695,65	2807,00
696,10	2806,00
696,55	2897,00
697,00	2792,00
697,45	2763,00
697,90	2821,00
698,35	2788,00
698,80	2860,00
699,24	2832,00
699,69	2775,00
700,14	2805,00
700,59	2819,00
701,04	2869,00
701,49	2977,00
701,94	2757,00
702,39	2886,00
702,84	2819,00
703,29	2796,00
703,74	2838,00
704,19	2806,00
704,63	2793,00
705,08	2877,00
705,53	2843,00
705,98	2817,00
706,43	2751,00
706,88	2858,00
707,33	2790,00
707,78	2810,00
708,22	2825,00
708,67	2855,00
709,12	2802,00
709,57	2801,00
710,02	2826,00
710,47	2809,00
710,92	2776,00
711,37	2821,00
711,81	2815,00
712,26	2833,00
712,71	2811,00
713,16	2900,00
713,61	2795,00
714,06	2830,00
714,50	2870,00
714,95	2828,00
715,40	2811,00
715,85	2831,00
716,30	2774,00
716,75	2776,00
717,19	2763,00
717,64	2765,00
718,09	2783,00
718,54	2875,00
718,99	2761,00
719,43	2784,00
719,88	2814,00
720,33	2802,00
720,78	2788,00
721,23	2842,00
721,67	2779,00
722,12	2845,00
722,57	2816,00
723,02	2762,00
723,47	2729,00
723,91	2837,00
724,36	2778,00
724,81	2829,00
725,26	2755,00
725,70	2819,00
726,15	2806,00
726,60	2822,00
727,05	2859,00
727,49	2752,00
727,94	2853,00
728,39	2822,00
728,84	2787,00
729,28	2867,00
729,73	2773,00
730,18	2840,00
730,63	2754,00
731,07	2818,00
731,52	2845,00
731,97	2805,00
732,41	2850,00
732,86	2801,00
733,31	2865,00
733,76	2826,00
734,20	2758,00
734,65	2828,00
735,10	2846,00
735,54	2818,00
735,99	2925,00
736,44	2767,00
736,89	2823,00
737,33	2830,00
737,78	2844,00
738,23	2836,00
738,67	2791,00
739,12	2815,00
739,57	2784,00
740,01	2877,00
740,46	2814,00
740,91	2815,00
741,35	2831,00
741,80	2847,00
742,25	2824,00
742,69	2815,00
743,14	2785,00
743,59	2781,00
744,03	2793,00
744,48	2862,00
744,92	2865,00
745,37	2827,00
745,82	2851,00
746,26	2875,00
746,71	2749,00
747,16	2815,00
747,60	2758,00
748,05	2838,00
748,49	2810,00
748,94	2773,00
749,39	2827,00
749,83	2958,00
750,28	2817,00
750,73	2823,00
751,17	2772,00
751,62	2803,00
752,06	2801,00
752,51	2813,00
752,95	2919,00
753,40	2796,00
753,85	2815,00
754,29	2751,00
754,74	2788,00
755,18	2788,00
755,63	2805,00
756,07	2813,00
756,52	2843,00
756,97	2778,00
757,41	2866,00
757,86	2818,00
758,30	2794,00
758,75	2811,00
759,19	2769,00
759,64	2764,00
760,08	2783,00
760,53	2813,00
760,98	2802,00
761,42	2809,00
761,87	2865,00
762,31	2824,00
762,76	2771,00
763,20	2775,00
763,65	2832,00
764,09	2795,00
764,54	2787,00
764,98	2778,00
765,43	2828,00
765,87	2771,00
766,32	2769,00
766,76	2762,00
767,21	2799,00
767,65	2795,00
768,10	2813,00
768,54	2833,00
768,99	2809,00
769,43	2892,00
769,88	2777,00
770,32	2782,00
770,77	2788,00
771,21	2765,00
771,65	2840,00
772,10	2809,00
772,54	2814,00
772,99	2770,00
773,43	2808,00
773,88	2803,00
774,32	2761,00
774,77	2778,00
775,21	2798,00
775,65	2791,00
776,10	2803,00
776,54	2759,00
776,99	2801,00
777,43	2786,00
777,88	2814,00
778,32	2830,00
778,76	2788,00
779,21	2803,00
779,65	2927,00
780,10	2869,00
780,54	2817,00
780,99	2824,00
781,43	2829,00
781,87	2771,00
782,32	2802,00
782,76	2809,00
783,20	2802,00
783,65	2836,00
784,09	2828,00
784,54	2803,00
784,98	2810,00
785,42	2782,00
785,87	2796,00
786,31	2829,00
786,75	2842,00
787,20	2869,00
787,64	2778,00
788,09	2777,00
788,53	2793,00
788,97	2789,00
789,42	2786,00
789,86	2771,00
790,30	2808,00
790,75	2753,00
791,19	2774,00
791,63	2839,00
792,08	2780,00
792,52	2806,00
792,96	2790,00
793,41	2993,00
793,85	2886,00
794,29	2816,00
794,74	2832,00
795,18	2814,00
795,62	2756,00
796,06	2827,00
796,51	2801,00
796,95	2786,00
797,39	2783,00
797,84	2766,00
798,28	2789,00
798,72	2848,00
799,16	2819,00
799,61	2746,00
800,05	2852,00
800,49	2825,00
800,94	2736,00
801,38	2820,00
801,82	2822,00
802,26	2769,00
802,71	2825,00
803,15	2905,00
803,59	2856,00
804,03	2812,00
804,48	2797,00
804,92	2761,00
805,36	2904,00
805,80	2890,00
806,25	2858,00
806,69	2847,00
807,13	2917,00
807,57	2798,00
808,01	2804,00
808,46	2748,00
808,90	2822,00
809,34	2806,00
809,78	2793,00
810,23	2777,00
810,67	2814,00
811,11	2868,00
811,55	2977,00
811,99	2807,00
812,44	2781,00
812,88	2858,00
813,32	2892,00
813,76	2854,00
814,20	2815,00
814,64	2865,00
815,09	2832,00
815,53	2786,00
815,97	2788,00
816,41	2763,00
816,85	2770,00
817,29	2805,00
817,74	2789,00
818,18	2843,00
818,62	2765,00
819,06	2826,00
819,50	2866,00
819,94	2791,00
820,39	2814,00
820,83	2796,00
821,27	2805,00
821,71	2766,00
822,15	2887,00
822,59	2790,00
823,03	2814,00
823,47	2826,00
823,92	2765,00
824,36	2816,00
824,80	2768,00
825,24	2816,00
825,68	2796,00
826,12	2776,00
826,56	2776,00
827,00	2752,00
827,44	2789,00
827,88	2825,00
828,33	2861,00
828,77	2767,00
829,21	2845,00
829,65	2820,00
830,09	2757,00
830,53	2891,00
830,97	2794,00
831,41	2913,00
831,85	2867,00
832,29	2826,00
832,73	2751,00
833,17	2808,00
833,61	2793,00
834,05	2851,00
834,49	2863,00
834,93	2806,00
835,37	2792,00
835,82	2856,00
836,26	2782,00
836,70	2809,00
837,14	2771,00
837,58	2864,00
838,02	2801,00
838,46	2790,00
838,90	2814,00
839,34	2815,00
839,78	2873,00
840,22	2894,00
840,66	2812,00
841,10	2857,00
841,54	2770,00
841,98	2799,00
842,42	2773,00
842,86	2799,00
843,30	2843,00
843,74	2829,00
844,18	2841,00
844,62	2811,00
845,06	2779,00
845,50	2814,00
845,94	2804,00
846,37	2872,00
846,81	2780,00
847,25	2763,00
847,69	2831,00
848,13	2804,00
848,57	2803,00
849,01	2775,00
849,45	2826,00
849,89	2876,00
850,33	2828,00
850,77	2800,00
851,21	2843,00
851,65	2763,00
852,09	2839,00
852,53	2847,00
852,97	2788,00
853,40	2804,00
853,84	2861,00
854,28	2751,00
854,72	2825,00
855,16	2749,00
855,60	2775,00
856,04	2851,00
856,48	2856,00
856,92	2799,00
857,36	2814,00
857,79	2819,00
858,23	2789,00
858,67	2861,00
859,11	2752,00
859,55	2781,00
859,99	2769,00
860,43	2793,00
860,87	2801,00
861,30	2852,00
861,74	2786,00
862,18	2798,00
862,62	2816,00
863,06	2795,00
863,50	2780,00
863,94	2836,00
864,37	2790,00
864,81	2775,00
865,25	2819,00
865,69	2765,00
866,13	2801,00
866,57	2745,00
867,00	2815,00
867,44	2745,00
867,88	2836,00
868,32	2817,00
868,76	2771,00
869,19	2821,00
869,63	2820,00
870,07	2895,00
870,51	2911,00
870,95	2730,00
871,38	2816,00
871,82	2806,00
872,26	2773,00
872,70	2815,00
873,14	2811,00
873,57	2779,00
874,01	2854,00
874,45	2833,00
874,89	2758,00
875,32	2725,00
875,76	2857,00
876,20	2746,00
876,64	2827,00
877,07	2788,00
877,51	2810,00
877,95	2800,00
878,39	2794,00
878,82	2809,00
879,26	2785,00
879,70	2894,00
880,14	2764,00
880,57	2787,00
881,01	2789,00
881,45	2785,00
881,89	2845,00
882,32	2796,00
882,76	2779,00
883,20	2815,00
883,63	2795,00
884,07	2749,00
884,51	2846,00
884,94	2818,00
885,38	2818,00
885,82	2822,00
886,26	2777,00
886,69	2776,00
887,13	2881,00
887,57	2765,00
888,00	2769,00
888,44	2789,00
888,88	2790,00
889,31	2947,00
889,75	2764,00
890,19	2839,00
890,62	2763,00
891,06	2808,00
891,50	2808,00
891,93	2742,00
892,37	2797,00
892,81	2814,00
893,24	2747,00
893,68	2761,00
894,11	2818,00
894,55	2799,00
894,99	2804,00
895,42	2778,00
895,86	2791,00
896,30	2774,00
896,73	2823,00
897,17	2781,00
897,60	2792,00
898,04	2777,00
898,48	2812,00
898,91	2840,00
899,35	2783,00
899,78	2783,00
900,22	2779,00
900,66	2828,00
901,09	2825,00
901,53	2767,00
901,96	2872,00
902,40	2886,00
902,84	2762,00
903,27	2783,00
903,71	2892,00
904,14	2754,00
904,58	2802,00
905,01	2750,00
905,45	2767,00
905,88	2744,00
906,32	2826,00
906,76	2796,00
907,19	2819,00
907,63	2837,00
908,06	2773,00
908,50	2815,00
908,93	2865,00
909,37	2769,00
909,80	2756,00
910,24	2806,00
910,67	2787,00
911,11	2785,00
911,54	2755,00
911,98	2789,00
912,41	2807,00
912,85	2803,00
913,28	2832,00
913,72	2811,00
914,15	2788,00
914,59	2754,00
915,02	2735,00
915,46	2776,00
915,89	2734,00
916,33	2845,00
916,76	2763,00
917,20	2849,00
917,63	2775,00
918,07	2848,00
918,50	2792,00
918,94	2780,00
919,37	2775,00
919,81	2811,00
920,24	2819,00
920,67	2807,00
921,11	2868,00
921,54	2816,00
921,98	2791,00
922,41	2767,00
922,85	2737,00
923,28	2793,00
923,72	2856,00
924,15	2811,00
924,58	2740,00
925,02	2834,00
925,45	2736,00
925,89	2826,00
926,32	2886,00
926,75	2792,00
927,19	2821,00
927,62	2750,00
928,06	2895,00
928,49	2791,00
928,92	2730,00
929,36	2834,00
929,79	2786,00
930,23	2803,00
930,66	2828,00
931,09	2774,00
931,53	2797,00
931,96	2736,00
932,39	2835,00
932,83	2802,00
933,26	2890,00
933,70	2768,00
934,13	2827,00
934,56	2825,00
935,00	2842,00
935,43	2819,00
935,86	2745,00
936,30	2755,00
936,73	2773,00
937,16	2794,00
937,60	2740,00
938,03	2809,00
938,46	2768,00
938,90	2765,00
939,33	2834,00
939,76	2767,00
940,19	2789,00
940,63	2832,00
941,06	2907,00
941,49	2770,00
941,93	2820,00
942,36	2775,00
942,79	2778,00
943,23	2808,00
943,66	2743,00
944,09	2729,00
944,52	2825,00
944,96	2782,00
945,39	2799,00
945,82	2775,00
946,26	2796,00
946,69	2770,00
947,12	2825,00
947,55	2777,00
947,99	2775,00
948,42	2833,00
948,85	2733,00
949,28	2731,00
949,72	2741,00
950,15	2901,00
950,58	2840,00
951,01	2764,00
951,45	2768,00
951,88	2798,00
952,31	2721,00
952,74	2843,00
953,17	2747,00
953,61	2890,00
954,04	2737,00
954,47	2765,00
954,90	2793,00
955,33	2776,00
955,77	2753,00
956,20	2816,00
956,63	2749,00
957,06	2822,00
957,49	2925,00
957,93	2724,00
958,36	2788,00
958,79	2807,00
959,22	2764,00
959,65	2753,00
960,08	2770,00
960,52	2715,00
960,95	2762,00
961,38	2798,00
961,81	2821,00
962,24	2823,00
962,67	2813,00
963,11	2791,00
963,54	2789,00
963,97	2745,00
964,40	2798,00
964,83	2782,00
965,26	2767,00
965,69	2804,00
966,13	2779,00
966,56	2761,00
966,99	2819,00
967,42	2744,00
967,85	2778,00
968,28	2846,00
968,71	3014,00
969,14	2835,00
969,57	2791,00
970,01	2793,00
970,44	2745,00
970,87	2781,00
971,30	2813,00
971,73	2766,00
972,16	2792,00
972,59	2754,00
973,02	2758,00
973,45	2778,00
973,88	2806,00
974,31	2781,00
974,74	2834,00
975,17	2804,00
975,61	2772,00
976,04	2762,00
976,47	2781,00
976,90	2814,00
977,33	2734,00
977,76	2815,00
978,19	2805,00
978,62	2765,00
979,05	2781,00
979,48	2777,00
979,91	2813,00
980,34	2818,00
980,77	2771,00
981,20	2779,00
981,63	2815,00
982,06	2795,00
982,49	2788,00
982,92	2751,00
983,35	2784,00
983,78	2762,00
984,21	2823,00
984,64	2844,00
985,07	2765,00
985,50	2740,00
985,93	2779,00
986,36	2820,00
986,79	2808,00
987,22	2758,00
987,65	2847,00
988,08	2770,00
988,51	2778,00
988,94	2780,00
989,37	2787,00
989,80	2798,00
990,23	2766,00
990,66	2815,00
991,09	2781,00
991,51	2830,00
991,94	2876,00
992,37	2769,00
992,80	2745,00
993,23	2789,00
993,66	2784,00
994,09	2785,00
994,52	2827,00
994,95	2837,00
995,38	2795,00
995,81	2789,00
996,24	2752,00
996,67	2735,00
997,09	2730,00
997,52	2850,00
997,95	2811,00
998,38	2767,00
998,81	2793,00
999,24	2770,00
999,67	2851,00
1000,10	2785,00
1000,53	2794,00
1000,95	2842,00
1001,38	2763,00
1001,81	2793,00
1002,24	2822,00
1002,67	2781,00
1003,10	2802,00
1003,53	2801,00
1003,95	2824,00
1004,38	2761,00
1004,81	2801,00
1005,24	2793,00
1005,67	2853,00
1006,10	2774,00
1006,52	2743,00
1006,95	2814,00
1007,38	2768,00
1007,81	2751,00
1008,24	2753,00
1008,67	2779,00
1009,09	2773,00
1009,52	2928,00
1009,95	2828,00
1010,38	2830,00
1010,81	2813,00
1011,23	2803,00
1011,66	2811,00
1012,09	2779,00
1012,52	2818,00
1012,95	2811,00
1013,37	2805,00
1013,80	2809,00
1014,23	2749,00
1014,66	2849,00
1015,08	2743,00
1015,51	2852,00
1015,94	2748,00
1016,37	2814,00
1016,80	2751,00
1017,22	2829,00
1017,65	2768,00
1018,08	2785,00
1018,51	2785,00
1018,93	2725,00
1019,36	2939,00
1019,79	2844,00
1020,21	2821,00
1020,64	2788,00
1021,07	2771,00
1021,50	2800,00
1021,92	2772,00
1022,35	2815,00
1022,78	2801,00
1023,21	2933,00
1023,63	2839,00
1024,06	2831,00
1024,49	2823,00
1024,91	2790,00
1025,34	2803,00
1025,77	2799,00
1026,19	2764,00
1026,62	2730,00
1027,05	2898,00
1027,47	2819,00
1027,90	2792,00
1028,33	2758,00
1028,75	2816,00
1029,18	2740,00
1029,61	2911,00
1030,03	2833,00
1030,46	2774,00
1030,89	2791,00
1031,31	2857,00
1031,74	2758,00
1032,17	2815,00
1032,59	2830,00
1033,02	2780,00
1033,45	2812,00
1033,87	2757,00
1034,30	2752,00
1034,73	2836,00
1035,15	2809,00
1035,58	2767,00
1036,00	2854,00
1036,43	2786,00
1036,86	2772,00
1037,28	2789,00
1037,71	2745,00
1038,13	2790,00
1038,56	2843,00
1038,99	2789,00
1039,41	2832,00
1039,84	2838,00
1040,26	2789,00
1040,69	2785,00
1041,11	2771,00
1041,54	2764,00
1041,97	2860,00
1042,39	2844,00
1042,82	2818,00
1043,24	2828,00
1043,67	2795,00
1044,09	2837,00
1044,52	2763,00
1044,95	2801,00
1045,37	2771,00
1045,80	2755,00
1046,22	2827,00
1046,65	2827,00
1047,07	2729,00
1047,50	2809,00
1047,92	2819,00
1048,35	2764,00
1048,77	2843,00
1049,20	2823,00
1049,62	2841,00
1050,05	2798,00
1050,47	2794,00
1050,90	2781,00
1051,32	2829,00
1051,75	2841,00
1052,17	2857,00
1052,60	2787,00
1053,02	2825,00
1053,45	2710,00
1053,87	2798,00
1054,30	2759,00
1054,72	2809,00
1055,15	2770,00
1055,57	2804,00
1056,00	2800,00
1056,42	2873,00
1056,85	2829,00
1057,27	2865,00
1057,70	2786,00
1058,12	2957,00
1058,54	2750,00
1058,97	2838,00
1059,39	2826,00
1059,82	2783,00
1060,24	2765,00
1060,67	2785,00
1061,09	2841,00
1061,51	2791,00
1061,94	2787,00
1062,36	2842,00
1062,79	2861,00
1063,21	2799,00
1063,64	2798,00
1064,06	2749,00
1064,48	2835,00
1064,91	2836,00
1065,33	2789,00
1065,76	2746,00
1066,18	2706,00
1066,60	2829,00
1067,03	2812,00
1067,45	2778,00
1067,87	2811,00
1068,30	2751,00
1068,72	2872,00
1069,15	2802,00
1069,57	2803,00
1069,99	2741,00
1070,42	2844,00
1070,84	2834,00
1071,26	2841,00
1071,69	2778,00
1072,11	2802,00
1072,53	2767,00
1072,96	2778,00
1073,38	2728,00
1073,80	2803,00
1074,23	2790,00
1074,65	2770,00
1075,07	2774,00
1075,50	2783,00
1075,92	2789,00
1076,34	2776,00
1076,77	2777,00
1077,19	2800,00
1077,61	2827,00
1078,04	2808,00
1078,46	2822,00
1078,88	2846,00
1079,30	2724,00
1079,73	2814,00
1080,15	2783,00
1080,57	2795,00
1081,00	2840,00
1081,42	2772,00
1081,84	2762,00
1082,26	2808,00
1082,69	2787,00
1083,11	2802,00
1083,53	2778,00
1083,95	2783,00
1084,38	2833,00
1084,80	2799,00
1085,22	2764,00
1085,64	2854,00
1086,07	2758,00
1086,49	2743,00
1086,91	2807,00
1087,33	2742,00
1087,76	2836,00
1088,18	4074,00
1088,60	2775,00
1089,02	2772,00
1089,45	2764,00
1089,87	2780,00
1090,29	2833,00
1090,71	2785,00
1091,13	2736,00
1091,56	2787,00
1091,98	2788,00
1092,40	2764,00
1092,82	2777,00
1093,24	2783,00
1093,66	2777,00
1094,09	2762,00
1094,51	2783,00
1094,93	2780,00
1095,35	2793,00
1095,77	2740,00
1096,19	2776,00
1096,62	2811,00
1097,04	2759,00
1097,46	2757,00
1097,88	2779,00
1098,30	2806,00
1098,72	2808,00
1099,15	2826,00
1099,57	2775,00
1099,99	2761,00
1100,41	2724,00
1100,83	2786,00
1101,25	2785,00
1101,67	2785,00
1102,09	2748,00
1102,52	2779,00
1102,94	2757,00
1103,36	2778,00
1103,78	2836,00
1104,20	2787,00
1104,62	2843,00
1105,04	2711,00
1105,46	2792,00
1105,88	2802,00
1106,30	2766,00
1106,73	2781,00
1107,15	2722,00
1107,57	2742,00
1107,99	2812,00
1108,41	2724,00
1108,83	2811,00
1109,25	2805,00
1109,67	2795,00
1110,09	2716,00
1110,51	2760,00
1110,93	2737,00
1111,35	2744,00
1111,77	2746,00
1112,19	2746,00
1112,61	2717,00
1113,03	2761,00
1113,45	2734,00
1113,87	2734,00
1114,29	2744,00
1114,71	2770,00
1115,13	2738,00
1115,55	2769,00
1115,98	2751,00
1116,40	2790,00
1116,82	2764,00
1117,24	2751,00
1117,66	2691,00
1118,08	2166,00
1118,50	2180,00
1118,91	2182,00
1119,33	2187,00
>>>>>End Processed Spectral Data<<<<<
