SpectraSuite Data File
++++++++++++++++++++++++++++++++++++
Date: Thu Jul 18 13:59:16 EEST 2013
User: OO Maya
Dark Spectrum Present: No
Reference Spectrum Present: No
Number of Sampled Component Spectra: 1
Spectrometers: MAYP11278
Integration Time (usec): 3000000 (MAYP11278)
Spectra Averaged: 4 (MAYP11278)
Boxcar Smoothing: 0 (MAYP11278)
Correct for Electrical Dark: No (MAYP11278)
Strobe/Lamp Enabled: No (MAYP11278)
Correct for Detector Non-linearity: No (MAYP11278)
Correct for Stray Light: No (MAYP11278)
Number of Pixels in Processed Spectrum: 2068
>>>>>Begin Processed Spectral Data<<<<<
188,05	2299,50
188,53	2212,75
189,01	2185,75
189,49	2184,75
189,96	6693,75
190,44	6916,25
190,92	6947,75
191,40	7083,50
191,88	7252,00
192,36	6998,75
192,83	6858,25
193,31	6697,00
193,79	6941,25
194,27	6930,25
194,75	7098,75
195,23	6890,00
195,70	7311,00
196,18	6910,50
196,66	6958,50
197,14	7836,75
197,62	6982,50
198,09	6802,00
198,57	6927,75
199,05	6816,00
199,53	7129,75
200,01	7268,50
200,48	6918,00
200,96	6991,25
201,44	7262,25
201,92	7203,75
202,39	7252,75
202,87	6774,75
203,35	7134,75
203,83	6824,25
204,31	7282,75
204,78	7382,00
205,26	6898,00
205,74	6914,25
206,22	7518,00
206,69	6992,00
207,17	7190,25
207,65	7856,00
208,13	7099,75
208,60	7273,75
209,08	7027,25
209,56	7337,25
210,04	7216,00
210,51	7042,00
210,99	7002,75
211,47	7222,50
211,94	7100,50
212,42	6889,50
212,90	7696,25
213,38	7261,00
213,85	6928,75
214,33	7714,50
214,81	7216,75
215,29	7519,50
215,76	7221,25
216,24	7269,00
216,72	7346,75
217,19	7274,25
217,67	6939,25
218,15	7098,75
218,62	7577,75
219,10	6762,50
219,58	6934,25
220,05	6957,50
220,53	7154,00
221,01	7453,75
221,49	6995,25
221,96	7432,25
222,44	6975,50
222,92	7422,25
223,39	7015,00
223,87	7406,75
224,35	7090,50
224,82	7036,25
225,30	6920,00
225,78	7101,00
226,25	6986,50
226,73	7136,25
227,21	7505,00
227,68	7074,00
228,16	7263,25
228,63	7351,75
229,11	7350,00
229,59	7125,75
230,06	7175,75
230,54	7020,50
231,02	7395,25
231,49	7447,50
231,97	7184,75
232,45	7213,25
232,92	6911,50
233,40	7211,50
233,87	7269,75
234,35	8226,75
234,83	7299,75
235,30	7056,75
235,78	6983,25
236,25	6905,25
236,73	7451,50
237,21	7848,75
237,68	7012,25
238,16	7208,25
238,63	7258,75
239,11	7246,25
239,59	7187,25
240,06	6841,75
240,54	7388,00
241,01	7495,00
241,49	7210,00
241,96	7119,75
242,44	7427,50
242,92	7525,50
243,39	6882,00
243,87	7037,25
244,34	7451,50
244,82	7595,50
245,29	7095,50
245,77	7566,00
246,24	7480,00
246,72	6983,50
247,20	7188,50
247,67	7200,75
248,15	7244,75
248,62	7326,00
249,10	6779,00
249,57	7271,00
250,05	7437,75
250,52	7271,00
251,00	7648,50
251,47	7242,00
251,95	7794,50
252,42	7613,00
252,90	7056,75
253,37	7564,50
253,85	7229,25
254,32	7180,25
254,80	7355,00
255,27	7347,50
255,75	7468,50
256,22	7050,50
256,70	7315,25
257,17	7388,75
257,65	7561,25
258,12	8155,00
258,60	7281,75
259,07	7065,75
259,55	7298,25
260,02	7420,25
260,50	7765,00
260,97	7156,75
261,45	7094,75
261,92	7569,25
262,40	7034,50
262,87	7284,00
263,35	7211,25
263,82	6818,00
264,30	7393,75
264,77	7584,00
265,25	7089,75
265,72	7333,25
266,19	7316,25
266,67	7514,00
267,14	7131,00
267,62	7187,00
268,09	7307,75
268,57	7346,00
269,04	6771,50
269,51	6980,50
269,99	7045,75
270,46	7426,00
270,94	7495,75
271,41	7132,50
271,89	7225,00
272,36	6879,50
272,83	6923,75
273,31	6735,50
273,78	7242,75
274,26	8350,25
274,73	7476,75
275,20	7446,25
275,68	7059,00
276,15	7189,50
276,63	7334,50
277,10	7463,75
277,57	6886,50
278,05	7163,50
278,52	6915,75
279,00	8459,25
279,47	7108,75
279,94	7055,75
280,42	8434,50
280,89	7545,25
281,36	8268,00
281,84	7120,75
282,31	7614,25
282,78	7142,75
283,26	7201,00
283,73	7438,50
284,21	7005,50
284,68	6912,00
285,15	7462,50
285,63	7223,25
286,10	7344,50
286,57	7322,25
287,05	6849,00
287,52	7357,25
287,99	7729,00
288,47	7127,25
288,94	7460,75
289,41	6764,00
289,89	7672,25
290,36	7022,25
290,83	7353,00
291,30	7115,25
291,78	7372,50
292,25	7920,25
292,72	7023,25
293,20	7562,25
293,67	7090,75
294,14	7396,25
294,62	7393,00
295,09	6977,75
295,56	7230,75
296,03	7324,50
296,51	7820,75
296,98	7734,75
297,45	7466,75
297,93	7377,50
298,40	7405,00
298,87	7122,50
299,34	7701,00
299,82	7211,25
300,29	7355,00
300,76	7107,25
301,23	7546,00
301,71	7523,50
302,18	7512,50
302,65	6981,75
303,12	7481,50
303,60	7505,25
304,07	7077,00
304,54	7128,00
305,01	7028,75
305,49	7272,75
305,96	7394,50
306,43	7349,75
306,90	7398,00
307,38	7097,50
307,85	7149,00
308,32	7287,00
308,79	7163,00
309,27	7562,25
309,74	7552,50
310,21	7338,25
310,68	7292,75
311,15	7388,00
311,63	7068,50
312,10	7579,50
312,57	7275,75
313,04	7851,75
313,51	7133,75
313,99	7182,75
314,46	7291,00
314,93	7159,50
315,40	7105,00
315,87	7680,50
316,34	7444,00
316,82	7342,75
317,29	7438,75
317,76	7331,50
318,23	8182,50
318,70	7243,75
319,17	7203,00
319,65	6882,75
320,12	7405,50
320,59	7858,00
321,06	7511,50
321,53	7187,00
322,00	6772,00
322,48	6976,50
322,95	7800,00
323,42	7173,00
323,89	8019,25
324,36	6943,50
324,83	7330,75
325,30	7268,25
325,78	7219,00
326,25	7181,00
326,72	7158,00
327,19	7396,25
327,66	7429,50
328,13	7417,75
328,60	7313,00
329,07	7183,50
329,54	7202,75
330,02	7120,25
330,49	7025,25
330,96	7541,75
331,43	7406,50
331,90	7832,75
332,37	7072,25
332,84	7903,25
333,31	7495,75
333,78	7451,00
334,25	7710,00
334,72	7307,75
335,20	7460,00
335,67	8413,00
336,14	6972,00
336,61	7226,50
337,08	7204,00
337,55	7359,75
338,02	7165,25
338,49	7175,00
338,96	7792,75
339,43	7540,75
339,90	6967,00
340,37	7120,00
340,84	6971,50
341,31	7433,75
341,78	7554,75
342,25	7134,25
342,72	7325,25
343,19	7531,75
343,67	7319,50
344,14	7156,25
344,61	7293,75
345,08	7114,25
345,55	7245,50
346,02	7494,25
346,49	7158,00
346,96	7120,25
347,43	7787,25
347,90	7117,25
348,37	7622,25
348,84	7362,75
349,31	6918,00
349,78	7313,00
350,25	7579,50
350,72	7314,25
351,19	7028,50
351,66	7418,50
352,13	7825,50
352,60	7391,75
353,07	7253,50
353,54	7309,50
354,01	7493,75
354,48	7386,75
354,94	7552,25
355,41	7385,25
355,88	7772,75
356,35	7088,25
356,82	7776,75
357,29	7047,50
357,76	8057,75
358,23	7516,25
358,70	6940,75
359,17	7043,25
359,64	7138,25
360,11	7145,50
360,58	7583,50
361,05	7754,75
361,52	7182,75
361,99	7257,25
362,46	7338,50
362,93	7227,00
363,39	7268,00
363,86	8037,25
364,33	7471,75
364,80	7144,25
365,27	7526,00
365,74	7118,25
366,21	6994,00
366,68	7349,75
367,15	7276,00
367,62	13494,50
368,09	6712,00
368,55	7058,25
369,02	7579,00
369,49	6965,00
369,96	7587,00
370,43	7374,50
370,90	7171,25
371,37	7162,25
371,84	7471,25
372,31	7122,50
372,77	6920,75
373,24	7181,75
373,71	7311,00
374,18	7021,75
374,65	7112,75
375,12	7386,00
375,59	6865,75
376,05	7734,50
376,52	7158,50
376,99	6968,50
377,46	7013,25
377,93	7405,50
378,40	7331,25
378,86	7276,75
379,33	7299,50
379,80	7263,50
380,27	7452,75
380,74	7728,50
381,21	7312,50
381,67	7755,25
382,14	7758,50
382,61	6903,75
383,08	7405,75
383,55	7266,50
384,02	7602,25
384,48	7344,00
384,95	8980,25
385,42	7319,00
385,89	7182,75
386,36	7208,00
386,82	7879,75
387,29	7023,75
387,76	6949,00
388,23	7571,75
388,69	7421,75
389,16	7699,25
389,63	7114,50
390,10	7457,75
390,57	7393,50
391,03	7494,00
391,50	7399,75
391,97	7357,75
392,44	7408,50
392,90	7204,00
393,37	7220,25
393,84	8057,75
394,31	7294,25
394,77	7684,50
395,24	7160,75
395,71	7557,50
396,18	8943,50
396,64	7004,75
397,11	7526,25
397,58	7668,25
398,05	7122,25
398,51	7393,00
398,98	7205,00
399,45	7073,00
399,92	7786,25
400,38	7085,00
400,85	7366,25
401,32	7245,50
401,78	7544,00
402,25	7461,75
402,72	7427,50
403,18	7187,00
403,65	7867,00
404,12	7351,00
404,59	7874,75
405,05	7973,00
405,52	7790,50
405,99	7204,50
406,45	7709,50
406,92	7585,50
407,39	8156,75
407,85	7464,75
408,32	7514,50
408,79	7621,75
409,25	7142,25
409,72	7802,50
410,19	7197,50
410,65	7830,25
411,12	7256,00
411,59	7847,75
412,05	7371,00
412,52	6990,25
412,99	7624,00
413,45	7376,25
413,92	7596,75
414,39	7648,50
414,85	8061,75
415,32	7458,50
415,78	8014,00
416,25	7603,50
416,72	7527,25
417,18	8107,00
417,65	7637,50
418,12	7513,00
418,58	7576,25
419,05	7554,00
419,51	7798,50
419,98	7302,00
420,45	7745,00
420,91	7238,50
421,38	7530,50
421,84	7369,00
422,31	7674,25
422,78	7349,50
423,24	7482,25
423,71	7677,50
424,17	7807,00
424,64	7488,75
425,11	7811,50
425,57	7527,50
426,04	7964,00
426,50	7424,75
426,97	7943,75
427,43	7779,50
427,90	7803,50
428,37	7250,75
428,83	7787,50
429,30	7628,00
429,76	7551,50
430,23	7635,25
430,69	8582,50
431,16	7220,00
431,62	7450,25
432,09	8090,25
432,55	7860,50
433,02	7506,50
433,48	7405,50
433,95	7531,25
434,42	7501,50
434,88	7769,75
435,35	7225,25
435,81	7730,75
436,28	7633,25
436,74	7226,25
437,21	7824,00
437,67	7676,25
438,14	7605,75
438,60	7399,75
439,07	7513,00
439,53	8866,50
440,00	7709,25
440,46	7851,00
440,93	8001,75
441,39	7391,50
441,86	7505,00
442,32	8439,50
442,79	7341,75
443,25	7601,25
443,72	7714,00
444,18	7260,00
444,64	8207,25
445,11	7757,75
445,57	7659,25
446,04	7587,75
446,50	7750,25
446,97	7576,50
447,43	7717,75
447,90	7498,00
448,36	7478,50
448,83	7823,25
449,29	7864,25
449,75	7637,50
450,22	7454,50
450,68	7430,00
451,15	7493,25
451,61	7701,25
452,08	7895,50
452,54	7438,50
453,00	8029,00
453,47	7677,50
453,93	7653,00
454,40	7716,25
454,86	7889,50
455,32	7516,75
455,79	7770,00
456,25	8018,50
456,72	7560,50
457,18	8273,50
457,64	7693,25
458,11	7734,25
458,57	7443,00
459,04	7821,25
459,50	7717,75
459,96	7822,25
460,43	7645,75
460,89	7525,25
461,36	8232,75
461,82	8120,75
462,28	7604,00
462,75	7480,00
463,21	8194,50
463,67	7683,00
464,14	7898,00
464,60	7971,75
465,06	7586,00
465,53	7740,75
465,99	8250,50
466,45	7902,75
466,92	8082,25
467,38	8091,00
467,84	7957,75
468,31	8069,75
468,77	8134,50
469,23	7986,75
469,70	7866,25
470,16	8221,75
470,62	8164,50
471,09	8046,75
471,55	8092,00
472,01	7994,25
472,48	8128,75
472,94	8220,50
473,40	8776,00
473,87	8346,25
474,33	8188,75
474,79	8405,75
475,25	8164,50
475,72	8644,25
476,18	8592,25
476,64	8744,75
477,11	8713,75
477,57	8823,50
478,03	9302,75
478,49	8938,75
478,96	9359,50
479,42	8860,00
479,88	9777,50
480,35	9415,50
480,81	9446,50
481,27	9282,50
481,73	9516,75
482,20	9658,25
482,66	9462,75
483,12	9814,00
483,58	9627,25
484,05	10043,00
484,51	10712,75
484,97	10455,25
485,43	10500,00
485,89	10186,50
486,36	10759,00
486,82	10619,00
487,28	11364,25
487,74	11083,25
488,21	11256,00
488,67	11646,75
489,13	12140,50
489,59	12264,75
490,05	12870,00
490,52	12504,75
490,98	13154,50
491,44	13012,50
491,90	13426,00
492,36	13496,75
492,83	14555,00
493,29	14686,50
493,75	14951,50
494,21	15064,75
494,67	15611,50
495,14	15873,00
495,60	16231,75
496,06	16950,25
496,52	17134,50
496,98	17762,50
497,44	18797,50
497,91	19015,00
498,37	19020,25
498,83	19796,75
499,29	20262,75
499,75	21541,50
500,21	21401,75
500,67	21836,25
501,14	22478,00
501,60	23124,75
502,06	24025,25
502,52	24541,75
502,98	25179,75
503,44	25900,75
503,90	26757,75
504,37	27281,00
504,83	28248,25
505,29	28869,00
505,75	29384,25
506,21	30269,50
506,67	31400,75
507,13	31916,50
507,59	33042,00
508,05	33760,25
508,51	34288,00
508,98	34978,25
509,44	35788,25
509,90	36832,50
510,36	37813,75
510,82	38531,75
511,28	39870,25
511,74	40727,00
512,20	41139,50
512,66	41590,50
513,12	42721,50
513,58	43785,25
514,04	44042,50
514,51	45455,25
514,97	46544,50
515,43	46385,25
515,89	47602,50
516,35	48557,00
516,81	49208,75
517,27	50429,25
517,73	50396,00
518,19	50917,00
518,65	52562,75
519,11	52047,75
519,57	52451,00
520,03	52779,75
520,49	53378,25
520,95	53918,00
521,41	54475,00
521,87	54864,75
522,33	54790,75
522,79	54657,75
523,25	55583,00
523,71	55708,75
524,17	55280,00
524,63	55775,00
525,09	55538,50
525,55	55281,50
526,01	55343,50
526,47	54892,50
526,93	54601,00
527,39	54127,75
527,85	54010,00
528,31	53924,75
528,77	53605,25
529,23	52768,50
529,69	52099,75
530,15	52065,50
530,61	51483,75
531,07	50456,50
531,53	50513,50
531,99	49584,50
532,45	48994,25
532,91	48312,00
533,37	47861,25
533,83	46972,75
534,29	46174,50
534,75	45729,25
535,21	45004,75
535,67	44366,00
536,12	43555,50
536,58	43115,00
537,04	42051,50
537,50	41780,75
537,96	40929,00
538,42	40272,00
538,88	40168,75
539,34	39080,25
539,80	39746,00
540,26	37227,75
540,72	37348,75
541,18	36249,25
541,63	35246,50
542,09	35143,25
542,55	34464,25
543,01	33645,25
543,47	33996,00
543,93	32191,50
544,39	32503,00
544,85	31464,50
545,31	30764,00
545,76	30205,75
546,22	29951,50
546,68	29168,75
547,14	28803,75
547,60	28327,25
548,06	27733,50
548,52	27101,75
548,98	26528,50
549,43	25934,25
549,89	26356,75
550,35	25217,50
550,81	24561,75
551,27	24542,50
551,73	23999,75
552,19	24073,00
552,64	23222,50
553,10	22468,75
553,56	22396,25
554,02	21893,50
554,48	21225,00
554,93	21292,25
555,39	20896,00
555,85	21054,25
556,31	20231,00
556,77	20217,75
557,23	19026,00
557,68	19129,75
558,14	19418,25
558,60	18414,00
559,06	18232,00
559,52	17674,00
559,97	17348,75
560,43	17112,25
560,89	17072,50
561,35	16784,50
561,81	16561,25
562,26	16150,25
562,72	15856,25
563,18	15833,75
563,64	15892,25
564,09	15078,50
564,55	15179,50
565,01	14818,50
565,47	14611,50
565,92	14512,00
566,38	14690,25
566,84	13999,75
567,30	13692,25
567,75	13808,50
568,21	13799,50
568,67	13236,25
569,13	13209,50
569,58	13289,00
570,04	12963,25
570,50	12744,50
570,96	12884,25
571,41	12673,25
571,87	12333,75
572,33	12302,75
572,78	12214,25
573,24	11801,00
573,70	11695,75
574,16	11723,50
574,61	12044,25
575,07	11770,50
575,53	11050,50
575,98	11344,00
576,44	10701,25
576,90	11388,25
577,36	10876,25
577,81	10809,75
578,27	10500,00
578,73	11135,00
579,18	10676,50
579,64	10349,00
580,10	10589,25
580,55	10453,50
581,01	10294,00
581,47	10245,50
581,92	10212,50
582,38	10140,00
582,84	9706,25
583,29	10023,75
583,75	10072,00
584,21	9822,25
584,66	9969,25
585,12	9547,00
585,57	10537,75
586,03	9522,25
586,49	9513,75
586,94	9449,50
587,40	9379,50
587,86	9656,25
588,31	8948,25
588,77	9359,25
589,22	9125,00
589,68	8907,75
590,14	9312,25
590,59	9325,25
591,05	8941,50
591,51	8595,00
591,96	9445,25
592,42	8769,75
592,87	9019,50
593,33	8856,25
593,78	9080,00
594,24	8829,00
594,70	8742,00
595,15	9175,50
595,61	8635,00
596,06	8453,00
596,52	9142,75
596,98	8918,25
597,43	9031,75
597,89	8659,75
598,34	8251,50
598,80	8598,50
599,25	8986,25
599,71	8349,75
600,16	8685,75
600,62	8883,00
601,08	8646,50
601,53	8704,00
601,99	8085,25
602,44	9413,75
602,90	8291,75
603,35	8428,50
603,81	8045,25
604,26	7929,25
604,72	8585,25
605,17	8238,75
605,63	8513,50
606,08	8364,25
606,54	7908,50
606,99	8344,75
607,45	8194,75
607,90	8306,00
608,36	8489,25
608,81	8227,00
609,27	9027,00
609,72	8479,50
610,18	8160,25
610,63	8037,25
611,09	8276,00
611,54	7808,75
612,00	8760,00
612,45	8331,50
612,91	8149,75
613,36	9187,50
613,82	7814,00
614,27	7823,75
614,73	7797,50
615,18	7776,00
615,64	8041,50
616,09	8049,75
616,54	7828,00
617,00	7968,75
617,45	8025,00
617,91	8302,50
618,36	7894,00
618,82	7909,25
619,27	7995,75
619,72	8322,00
620,18	7975,50
620,63	8299,00
621,09	8389,50
621,54	8002,75
622,00	8344,50
622,45	8411,00
622,90	8315,25
623,36	7810,75
623,81	7806,75
624,27	8279,50
624,72	7635,50
625,17	7898,25
625,63	8058,25
626,08	7746,75
626,54	7929,50
626,99	8030,75
627,44	7616,75
627,90	8132,50
628,35	8160,50
628,81	7482,50
629,26	7885,75
629,71	7920,50
630,17	7748,25
630,62	8068,50
631,07	7827,75
631,53	8106,75
631,98	8070,75
632,43	8316,25
632,89	7699,50
633,34	7778,00
633,79	7668,25
634,25	7770,50
634,70	7621,50
635,15	7803,25
635,61	7708,00
636,06	7572,50
636,51	7838,00
636,97	7823,25
637,42	7659,25
637,87	8093,00
638,33	8218,25
638,78	7729,50
639,23	7894,75
639,69	7601,50
640,14	7423,75
640,59	7904,50
641,05	8165,25
641,50	7462,25
641,95	7714,00
642,40	7757,25
642,86	7473,75
643,31	7728,25
643,76	8032,00
644,22	7688,25
644,67	7509,00
645,12	7693,00
645,57	7533,00
646,03	7787,50
646,48	7825,25
646,93	7957,75
647,38	8030,00
647,84	7853,75
648,29	7869,25
648,74	7485,25
649,19	8166,25
649,65	7927,75
650,10	9282,25
650,55	7524,25
651,00	7541,75
651,46	7592,50
651,91	7851,25
652,36	7529,25
652,81	7777,00
653,27	7661,00
653,72	7593,75
654,17	7746,75
654,62	7912,00
655,07	7645,50
655,53	7412,75
655,98	7942,25
656,43	7431,25
656,88	7688,50
657,33	7951,25
657,79	7985,25
658,24	7551,50
658,69	7852,50
659,14	7522,75
659,59	9283,75
660,05	7626,75
660,50	8129,00
660,95	7761,00
661,40	7607,50
661,85	7734,50
662,30	7524,75
662,76	7370,75
663,21	7925,25
663,66	7613,50
664,11	7635,25
664,56	7752,00
665,01	7512,25
665,47	7826,25
665,92	7472,00
666,37	7820,00
666,82	7872,50
667,27	8608,00
667,72	8211,00
668,17	7547,00
668,62	7873,25
669,08	7539,75
669,53	8505,00
669,98	7351,75
670,43	7567,25
670,88	8107,75
671,33	7771,25
671,78	8331,75
672,23	8581,50
672,69	7725,50
673,14	7796,75
673,59	8192,25
674,04	8915,75
674,49	7891,50
674,94	7855,50
675,39	7376,75
675,84	7451,50
676,29	7790,00
676,74	7730,25
677,19	7726,75
677,64	7685,00
678,10	8689,25
678,55	7599,00
679,00	7647,50
679,45	7816,00
679,90	7584,00
680,35	7763,50
680,80	7783,00
681,25	7242,75
681,70	7254,50
682,15	7645,00
682,60	7733,00
683,05	7954,50
683,50	8005,50
683,95	7826,25
684,40	8199,50
684,85	7977,50
685,30	7861,25
685,75	7856,00
686,20	7564,75
686,65	7293,50
687,10	7601,75
687,55	7421,50
688,00	7657,75
688,45	7616,25
688,90	8591,50
689,35	7865,75
689,80	7235,75
690,25	7634,00
690,70	7653,25
691,15	7365,75
691,60	7639,25
692,05	7291,00
692,50	7662,25
692,95	7577,25
693,40	7866,25
693,85	7803,75
694,30	7638,50
694,75	7739,75
695,20	9235,75
695,65	7747,25
696,10	7799,50
696,55	8430,25
697,00	7708,50
697,45	7603,25
697,90	7877,50
698,35	7534,50
698,80	7965,25
699,24	7916,50
699,69	7527,00
700,14	7618,25
700,59	7921,50
701,04	7976,00
701,49	9071,25
701,94	7376,00
702,39	8217,00
702,84	7677,50
703,29	7652,00
703,74	7852,25
704,19	7758,00
704,63	7646,25
705,08	8161,75
705,53	8152,50
705,98	8135,25
706,43	7501,50
706,88	8056,00
707,33	7852,25
707,78	7753,50
708,22	7989,25
708,67	8121,00
709,12	7877,25
709,57	7733,25
710,02	7888,50
710,47	7830,25
710,92	7658,25
711,37	8018,75
711,81	7888,25
712,26	7866,50
712,71	7625,00
713,16	8559,00
713,61	7862,50
714,06	7859,00
714,50	8317,50
714,95	8144,75
715,40	7811,00
715,85	7799,00
716,30	7616,50
716,75	7499,50
717,19	7292,50
717,64	7207,25
718,09	7740,00
718,54	8159,50
718,99	7271,25
719,43	7231,50
719,88	7667,50
720,33	7589,75
720,78	7549,25
721,23	7852,25
721,67	7596,50
722,12	7988,50
722,57	7626,00
723,02	7354,00
723,47	7251,00
723,91	7751,50
724,36	7195,50
724,81	7797,00
725,26	7210,50
725,70	7626,50
726,15	7625,75
726,60	7662,25
727,05	8289,75
727,49	7397,00
727,94	8136,25
728,39	7847,25
728,84	7584,00
729,28	8110,00
729,73	7547,25
730,18	7991,75
730,63	7435,25
731,07	7790,00
731,52	7915,50
731,97	7912,25
732,41	7971,00
732,86	7680,00
733,31	8149,50
733,76	8006,75
734,20	7758,25
734,65	8191,75
735,10	8113,50
735,54	7958,00
735,99	8882,00
736,44	7690,25
736,89	7966,75
737,33	8289,25
737,78	8243,25
738,23	7976,75
738,67	7921,50
739,12	8047,25
739,57	7692,00
740,01	8437,00
740,46	8160,00
740,91	7846,00
741,35	8216,50
741,80	8286,25
742,25	8049,75
742,69	8153,00
743,14	7862,50
743,59	7918,00
744,03	8068,25
744,48	8443,25
744,92	8391,75
745,37	8343,00
745,82	8421,25
746,26	8627,00
746,71	7561,75
747,16	7858,50
747,60	7775,50
748,05	8303,50
748,49	8036,75
748,94	8017,25
749,39	8170,75
749,83	9130,75
750,28	8176,00
750,73	8068,75
751,17	7783,50
751,62	7983,00
752,06	8013,50
752,51	8021,75
752,95	8741,75
753,40	7920,25
753,85	8062,25
754,29	7721,50
754,74	7984,00
755,18	7801,75
755,63	8026,50
756,07	8160,75
756,52	8481,00
756,97	7948,75
757,41	8484,75
757,86	8049,25
758,30	7878,75
758,75	7753,00
759,19	7629,25
759,64	7139,00
760,08	7244,50
760,53	7470,25
760,98	7374,75
761,42	7672,25
761,87	7957,50
762,31	7441,75
762,76	7100,25
763,20	7411,25
763,65	7800,00
764,09	7566,25
764,54	7312,00
764,98	7499,50
765,43	7871,75
765,87	7506,50
766,32	7487,25
766,76	7709,25
767,21	7951,00
767,65	7965,50
768,10	8105,25
768,54	8210,75
768,99	7975,75
769,43	8693,25
769,88	7791,25
770,32	7966,00
770,77	7828,75
771,21	7747,00
771,65	8200,50
772,10	8058,50
772,54	8129,25
772,99	7671,50
773,43	7945,25
773,88	7948,25
774,32	7538,75
774,77	8075,75
775,21	7823,50
775,65	8092,00
776,10	8052,50
776,54	7806,50
776,99	7971,75
777,43	7971,75
777,88	8110,50
778,32	8188,25
778,76	7880,00
779,21	8040,75
779,65	9017,25
780,10	8557,00
780,54	8054,00
780,99	8311,75
781,43	8241,00
781,87	7833,00
782,32	8071,50
782,76	7704,25
783,20	7914,50
783,65	8200,25
784,09	8226,75
784,54	7918,00
784,98	7893,50
785,42	7878,75
785,87	7766,00
786,31	8158,25
786,75	8238,50
787,20	8323,50
787,64	7599,50
788,09	7746,25
788,53	7974,75
788,97	7632,25
789,42	7769,25
789,86	7734,25
790,30	7884,25
790,75	7580,25
791,19	7671,50
791,63	8211,25
792,08	7725,00
792,52	7883,00
792,96	7693,50
793,41	9374,00
793,85	8195,50
794,29	7902,50
794,74	7951,25
795,18	7868,00
795,62	7510,50
796,06	7916,50
796,51	7776,00
796,95	7834,00
797,39	7643,25
797,84	7576,25
798,28	7829,00
798,72	8159,50
799,16	7872,25
799,61	7565,75
800,05	8360,50
800,49	7918,25
800,94	7562,50
801,38	7879,50
801,82	7846,00
802,26	7536,50
802,71	8107,25
803,15	8389,25
803,59	7998,00
804,03	7885,00
804,48	7796,50
804,92	7622,00
805,36	8426,50
805,80	8581,75
806,25	8382,50
806,69	8085,50
807,13	8501,50
807,57	7750,25
808,01	7763,50
808,46	7496,50
808,90	7941,75
809,34	7802,75
809,78	7639,00
810,23	7462,50
810,67	7860,00
811,11	8165,75
811,55	8920,75
811,99	7453,50
812,44	7422,25
812,88	7837,75
813,32	8188,75
813,76	7898,75
814,20	7595,00
814,64	7751,75
815,09	7699,25
815,53	7629,75
815,97	7392,25
816,41	7235,75
816,85	7316,25
817,29	7781,50
817,74	7524,50
818,18	7880,00
818,62	7397,00
819,06	7782,75
819,50	7919,25
819,94	7460,50
820,39	7746,50
820,83	7488,50
821,27	7595,50
821,71	7320,50
822,15	8011,00
822,59	7224,75
823,03	7520,75
823,47	7615,75
823,92	7333,75
824,36	7613,50
824,80	7624,25
825,24	7786,25
825,68	7733,00
826,12	7314,00
826,56	7503,00
827,00	7104,25
827,44	7572,75
827,88	7792,00
828,33	7952,75
828,77	7395,75
829,21	7830,25
829,65	7733,75
830,09	7442,00
830,53	8155,75
830,97	7475,75
831,41	8430,25
831,85	7902,00
832,29	7822,75
832,73	7288,75
833,17	7586,00
833,61	7544,75
834,05	8141,25
834,49	7906,75
834,93	7656,00
835,37	7559,50
835,82	8017,50
836,26	7594,50
836,70	7741,00
837,14	7638,50
837,58	7934,00
838,02	7464,50
838,46	7496,00
838,90	7783,25
839,34	7674,25
839,78	8248,25
840,22	8430,75
840,66	7813,00
841,10	8146,75
841,54	7236,00
841,98	7590,25
842,42	7322,75
842,86	7569,25
843,30	7898,50
843,74	7747,75
844,18	7894,75
844,62	7661,75
845,06	7425,25
845,50	7896,00
845,94	7686,00
846,37	7929,00
846,81	7560,25
847,25	7536,25
847,69	7735,75
848,13	7539,25
848,57	7610,25
849,01	7603,00
849,45	7930,00
849,89	8015,00
850,33	7928,75
850,77	7644,75
851,21	8011,25
851,65	7439,00
852,09	7773,00
852,53	8026,50
852,97	7475,75
853,40	7502,75
853,84	7824,00
854,28	7310,00
854,72	7927,75
855,16	7351,25
855,60	7510,50
856,04	8073,00
856,48	8198,25
856,92	7725,50
857,36	7826,00
857,79	7708,50
858,23	7360,50
858,67	8098,75
859,11	7220,75
859,55	7509,25
859,99	7583,00
860,43	7603,00
860,87	7813,00
861,30	7921,00
861,74	7554,75
862,18	7671,00
862,62	7811,00
863,06	7479,00
863,50	7580,00
863,94	7934,50
864,37	7432,75
864,81	7642,25
865,25	7578,50
865,69	7225,00
866,13	7594,75
866,57	7207,50
867,00	7889,00
867,44	7419,25
867,88	7773,00
868,32	7645,50
868,76	7584,75
869,19	7813,25
869,63	7734,75
870,07	8224,00
870,51	8549,50
870,95	7322,25
871,38	7633,50
871,82	7627,50
872,26	7412,50
872,70	7705,00
873,14	7835,75
873,57	7564,00
874,01	7973,00
874,45	7905,75
874,89	7634,25
875,32	7436,75
875,76	8042,50
876,20	7186,25
876,64	7805,00
877,07	7671,00
877,51	7621,00
877,95	7649,00
878,39	7598,50
878,82	7699,00
879,26	7508,00
879,70	8183,75
880,14	7399,50
880,57	7283,25
881,01	7515,25
881,45	7678,00
881,89	7912,75
882,32	7583,50
882,76	7639,50
883,20	7551,50
883,63	7605,25
884,07	7370,50
884,51	7782,75
884,94	7619,25
885,38	7747,75
885,82	7831,50
886,26	7480,50
886,69	7379,50
887,13	8171,00
887,57	7323,00
888,00	7372,25
888,44	7563,75
888,88	7494,25
889,31	8669,00
889,75	7271,50
890,19	7920,50
890,62	7427,25
891,06	7804,75
891,50	7824,00
891,93	7252,00
892,37	7452,50
892,81	7444,25
893,24	7203,50
893,68	7364,50
894,11	7608,50
894,55	7374,25
894,99	7626,50
895,42	7355,25
895,86	7160,50
896,30	7416,50
896,73	7590,75
897,17	7156,00
897,60	7078,50
898,04	7195,75
898,48	7432,00
898,91	7700,25
899,35	7170,75
899,78	7185,75
900,22	7160,25
900,66	7639,75
901,09	7499,50
901,53	7236,75
901,96	7988,75
902,40	8025,25
902,84	7141,75
903,27	7343,50
903,71	8013,75
904,14	7179,75
904,58	7573,00
905,01	7237,25
905,45	7300,75
905,88	7109,50
906,32	7765,75
906,76	7353,25
907,19	7655,50
907,63	7443,25
908,06	7251,25
908,50	7537,50
908,93	7833,75
909,37	7265,50
909,80	6976,25
910,24	7420,25
910,67	7375,00
911,11	7286,00
911,54	7147,25
911,98	7224,50
912,41	7358,25
912,85	7172,75
913,28	7405,00
913,72	7461,50
914,15	7254,00
914,59	7033,75
915,02	7043,25
915,46	7199,25
915,89	7112,25
916,33	7608,00
916,76	7212,75
917,20	7618,75
917,63	7203,75
918,07	7613,00
918,50	7169,50
918,94	7346,25
919,37	7341,50
919,81	7561,75
920,24	7637,75
920,67	7403,50
921,11	7927,00
921,54	7518,25
921,98	7274,50
922,41	7097,00
922,85	7071,75
923,28	7417,50
923,72	7878,75
924,15	7567,75
924,58	6926,50
925,02	7518,25
925,45	7081,75
925,89	7557,00
926,32	8025,00
926,75	7217,75
927,19	7505,25
927,62	6874,25
928,06	8038,00
928,49	7225,25
928,92	6882,50
929,36	7535,50
929,79	7099,25
930,23	7281,75
930,66	7465,75
931,09	6969,75
931,53	7288,00
931,96	6668,00
932,39	7693,00
932,83	7447,50
933,26	8038,50
933,70	7045,25
934,13	7466,50
934,56	7433,75
935,00	7342,75
935,43	7192,50
935,86	6825,00
936,30	7036,50
936,73	6889,25
937,16	7216,75
937,60	6849,75
938,03	7269,50
938,46	7031,50
938,90	7034,25
939,33	7357,75
939,76	6907,00
940,19	7161,50
940,63	7489,50
941,06	7836,50
941,49	6944,50
941,93	7464,75
942,36	6889,00
942,79	7023,25
943,23	7324,50
943,66	6788,75
944,09	6730,25
944,52	7298,00
944,96	7241,50
945,39	7304,50
945,82	7101,25
946,26	7167,00
946,69	7186,75
947,12	7521,75
947,55	7173,50
947,99	7100,50
948,42	7300,75
948,85	6723,00
949,28	6844,50
949,72	6845,75
950,15	8031,50
950,58	7558,00
951,01	7048,00
951,45	6975,75
951,88	7261,75
952,31	6751,50
952,74	7383,75
953,17	7033,00
953,61	7771,00
954,04	6786,25
954,47	6950,75
954,90	7013,50
955,33	7003,75
955,77	6980,25
956,20	7270,50
956,63	6881,25
957,06	7382,50
957,49	8169,00
957,93	6820,25
958,36	7332,75
958,79	7218,50
959,22	7021,00
959,65	6963,50
960,08	7017,75
960,52	6633,00
960,95	7075,75
961,38	7392,50
961,81	7321,25
962,24	7466,50
962,67	7383,75
963,11	7024,50
963,54	7199,00
963,97	7033,50
964,40	7225,00
964,83	7160,00
965,26	7010,25
965,69	7447,75
966,13	7082,00
966,56	7060,00
966,99	7477,75
967,42	7016,75
967,85	7114,50
968,28	7595,25
968,71	8697,00
969,14	7447,75
969,57	7183,25
970,01	7416,50
970,44	7010,00
970,87	7105,00
971,30	7413,00
971,73	7097,00
972,16	7231,25
972,59	6919,00
973,02	7005,25
973,45	7199,75
973,88	7368,50
974,31	7145,25
974,74	7448,50
975,17	7340,50
975,61	7020,00
976,04	7073,25
976,47	7044,00
976,90	7295,75
977,33	6980,25
977,76	7452,00
978,19	7264,25
978,62	7143,50
979,05	7175,75
979,48	7124,50
979,91	7559,25
980,34	7458,75
980,77	7083,50
981,20	7402,00
981,63	7613,75
982,06	7292,00
982,49	7256,25
982,92	7166,50
983,35	7235,00
983,78	7100,75
984,21	7604,25
984,64	7511,50
985,07	6982,75
985,50	6839,00
985,93	7244,00
986,36	7517,75
986,79	7200,25
987,22	7055,00
987,65	7445,75
988,08	7277,00
988,51	7327,75
988,94	7249,00
989,37	7373,25
989,80	7323,50
990,23	7217,50
990,66	7392,00
991,09	7324,75
991,51	7428,50
991,94	7934,00
992,37	7177,25
992,80	7090,75
993,23	7279,00
993,66	7138,25
994,09	7204,25
994,52	7467,75
994,95	7544,25
995,38	7356,00
995,81	7339,50
996,24	6924,75
996,67	6993,25
997,09	6805,75
997,52	7642,50
997,95	7563,00
998,38	7132,50
998,81	7364,00
999,24	7044,75
999,67	7790,75
1000,10	7282,00
1000,53	7329,75
1000,95	7715,50
1001,38	7038,75
1001,81	7329,25
1002,24	7506,00
1002,67	7311,00
1003,10	7338,50
1003,53	7286,00
1003,95	7484,50
1004,38	6995,75
1004,81	7344,75
1005,24	7337,00
1005,67	7758,50
1006,10	7212,00
1006,52	6948,00
1006,95	7386,50
1007,38	7234,50
1007,81	7088,75
1008,24	6896,00
1008,67	7198,50
1009,09	7116,50
1009,52	8590,00
1009,95	7624,25
1010,38	7558,00
1010,81	7396,25
1011,23	7455,00
1011,66	7568,00
1012,09	7230,50
1012,52	7475,75
1012,95	7266,75
1013,37	7347,25
1013,80	7436,50
1014,23	6969,50
1014,66	7723,75
1015,08	6861,75
1015,51	7512,50
1015,94	7025,25
1016,37	7280,25
1016,80	7028,75
1017,22	7400,00
1017,65	7130,50
1018,08	13544,25
1018,51	7105,75
1018,93	6842,00
1019,36	8263,50
1019,79	7662,75
1020,21	7508,00
1020,64	7178,00
1021,07	7227,50
1021,50	7398,00
1021,92	7392,75
1022,35	7444,00
1022,78	7244,75
1023,21	8598,50
1023,63	7598,00
1024,06	7606,50
1024,49	7469,50
1024,91	7340,75
1025,34	7321,00
1025,77	7510,00
1026,19	7103,25
1026,62	6957,25
1027,05	8070,00
1027,47	7466,75
1027,90	7389,00
1028,33	7318,25
1028,75	7328,25
1029,18	7110,25
1029,61	8071,50
1030,03	7345,00
1030,46	7277,25
1030,89	7370,75
1031,31	7747,00
1031,74	6891,50
1032,17	7345,00
1032,59	7510,75
1033,02	7146,50
1033,45	7559,25
1033,87	7021,00
1034,30	7055,25
1034,73	7389,50
1035,15	7520,50
1035,58	7092,75
1036,00	7813,50
1036,43	7027,50
1036,86	7065,25
1037,28	7306,25
1037,71	6857,75
1038,13	7504,50
1038,56	7517,25
1038,99	7439,00
1039,41	7595,25
1039,84	7801,75
1040,26	7175,75
1040,69	7202,00
1041,11	7391,75
1041,54	7136,00
1041,97	7727,00
1042,39	7625,00
1042,82	7417,00
1043,24	7582,50
1043,67	7219,25
1044,09	7521,50
1044,52	7004,50
1044,95	7200,75
1045,37	7132,00
1045,80	6932,00
1046,22	7220,00
1046,65	7398,00
1047,07	7005,50
1047,50	7340,75
1047,92	7481,25
1048,35	6972,75
1048,77	7534,25
1049,20	7400,75
1049,62	7467,75
1050,05	7121,25
1050,47	7159,00
1050,90	7376,50
1051,32	7482,75
1051,75	7694,75
1052,17	7549,75
1052,60	7214,75
1053,02	7426,00
1053,45	6719,00
1053,87	7199,50
1054,30	6769,00
1054,72	7142,50
1055,15	7023,50
1055,57	7316,25
1056,00	7386,00
1056,42	7849,25
1056,85	7578,50
1057,27	7507,75
1057,70	7244,50
1058,12	8565,50
1058,54	6961,50
1058,97	7342,50
1059,39	7457,00
1059,82	7121,50
1060,24	7158,00
1060,67	7025,50
1061,09	7456,75
1061,51	7251,00
1061,94	7090,50
1062,36	7432,75
1062,79	7632,00
1063,21	7269,25
1063,64	7144,25
1064,06	6986,00
1064,48	7441,50
1064,91	7482,25
1065,33	7077,50
1065,76	6963,75
1066,18	6793,25
1066,60	7454,75
1067,03	7204,25
1067,45	7138,25
1067,87	7274,50
1068,30	7065,00
1068,72	7822,50
1069,15	7193,75
1069,57	7060,50
1069,99	6808,25
1070,42	7410,75
1070,84	7507,50
1071,26	7479,00
1071,69	7082,25
1072,11	7323,50
1072,53	7014,25
1072,96	6888,25
1073,38	6840,25
1073,80	7384,75
1074,23	7065,75
1074,65	6794,75
1075,07	7045,75
1075,50	7035,50
1075,92	7189,50
1076,34	6966,25
1076,77	6898,50
1077,19	7083,00
1077,61	7416,25
1078,04	7080,25
1078,46	7374,50
1078,88	7633,75
1079,30	6628,25
1079,73	7239,25
1080,15	7030,75
1080,57	7105,00
1081,00	7331,75
1081,42	7140,75
1081,84	7031,25
1082,26	7242,75
1082,69	7094,50
1083,11	7102,50
1083,53	7089,25
1083,95	7139,50
1084,38	7461,75
1084,80	7151,00
1085,22	7012,25
1085,64	7507,75
1086,07	6901,25
1086,49	6998,25
1086,91	7208,50
1087,33	6736,25
1087,76	7329,50
1088,18	15609,25
1088,60	7182,75
1089,02	6961,25
1089,45	6999,75
1089,87	7060,00
1090,29	7505,25
1090,71	7125,00
1091,13	6869,00
1091,56	7033,00
1091,98	7032,50
1092,40	6918,00
1092,82	7127,25
1093,24	6998,75
1093,66	7125,25
1094,09	7006,25
1094,51	7080,75
1094,93	7011,75
1095,35	7101,75
1095,77	6943,50
1096,19	7144,25
1096,62	7216,00
1097,04	6783,00
1097,46	7081,75
1097,88	6960,75
1098,30	7262,25
1098,72	7279,50
1099,15	7205,75
1099,57	7036,00
1099,99	7088,50
1100,41	6863,50
1100,83	6963,75
1101,25	6965,75
1101,67	7030,25
1102,09	6767,25
1102,52	6885,75
1102,94	7009,25
1103,36	7072,75
1103,78	7109,50
1104,20	6882,25
1104,62	7556,50
1105,04	6462,50
1105,46	7112,75
1105,88	6998,25
1106,30	6857,25
1106,73	7005,25
1107,15	6512,50
1107,57	6625,00
1107,99	7302,25
1108,41	6701,50
1108,83	7138,00
1109,25	7154,25
1109,67	7111,75
1110,09	6591,50
1110,51	6859,50
1110,93	6596,50
1111,35	6878,50
1111,77	6592,25
1112,19	6684,75
1112,61	6508,75
1113,03	6807,75
1113,45	6687,25
1113,87	6639,00
1114,29	6992,50
1114,71	7034,25
1115,13	6740,50
1115,55	6843,50
1115,98	6735,75
1116,40	6995,25
1116,82	6919,00
1117,24	6955,75
1117,66	6565,25
1118,08	2087,25
1118,50	2191,50
1118,91	2189,25
1119,33	2184,50
>>>>>End Processed Spectral Data<<<<<
